# Orbital solution for gas clouds in the Central Molecular Zone, published in Kruijssen, Dale & Longmore, 2015, MNRAS, 447, 1063-1083
# t[Myr], x[pc], y[pc], z[pc], R[pc], vx[km/s], vy[km/s], vz[km/s], vorb[km/s], l[deg], b[deg], vlos'[km/s], mu_l'[mas/yr], mu_b'[mas/yr], mu_x'[mas/yr], mu_y'[mas/yr]
# IMPORTANT: see Appendix C in the accompanying paper for details on the coordinate systems and assumptions

 -2.50    100.89649    -13.09174    -12.03820     93.69050   -106.01843   -115.60171     31.17278    159.93066     -0.68011     -0.08115   -129.60171     -3.74815      0.57155     -2.44993     -2.89364
 -2.49     99.79701    -14.27157    -11.71730     92.76178   -108.69741   -115.19709     31.54509    161.50413     -0.67270     -0.07898   -129.19709     -3.68167      0.58079     -2.42292     -2.83222
 -2.48     98.67997    -15.44879    -11.39394     91.82781   -111.37005   -114.76837     31.90407    163.07341     -0.66517     -0.07680   -128.76837     -3.61535      0.58970     -2.39572     -2.77110
 -2.47     97.51936    -16.61849    -11.06498     90.88247   -114.02330   -114.27834     32.22802    164.62830     -0.65735     -0.07459   -128.27834     -3.54951      0.59774     -2.36803     -2.71085
 -2.46     96.34146    -17.78478    -10.73403     89.93334   -116.66740   -113.76336     32.53729    166.17591     -0.64941     -0.07235   -127.76336     -3.48390      0.60541     -2.34015     -2.65099
 -2.45     95.13762    -18.94596    -10.40008     88.97854   -119.29779   -113.21097     32.82454    167.71261     -0.64129     -0.07010   -127.21097     -3.41863      0.61254     -2.31198     -2.59170
 -2.44     93.89951    -20.09949    -10.06261     88.01783   -121.90809   -112.60765     33.08123    169.23235     -0.63295     -0.06783   -126.60765     -3.35385      0.61891     -2.28343     -2.53324
 -2.43     92.64436    -21.24898     -9.72352     87.05461   -124.50786   -111.97861     33.32233    170.74301     -0.62449     -0.06554   -125.97861     -3.28934      0.62489     -2.25469     -2.47520
 -2.42     91.35528    -22.38999     -9.38142     86.08725   -127.08561   -111.29761     33.53168    172.23429     -0.61580     -0.06324   -125.29761     -3.22537      0.63009     -2.22556     -2.41804
 -2.41     90.04104    -23.52399     -9.03747     85.11820   -129.64530   -110.57686     33.71630    173.70923     -0.60694     -0.06092   -124.57686     -3.16185      0.63467     -2.19614     -2.36158
 -2.40     88.71003    -24.65332     -8.69229     84.14803   -132.19296   -109.82960     33.88443    175.17327     -0.59797     -0.05859   -123.82960     -3.09863      0.63884     -2.16654     -2.30559
 -2.39     87.33760    -25.76987     -8.34470     83.17758   -134.70776   -109.01478     34.00987    176.60703     -0.58871     -0.05625   -123.01478     -3.03623      0.64195     -2.13645     -2.25085
 -2.38     85.94883    -26.88086     -7.99643     82.20810   -137.20822   -108.17243     34.11762    178.02744     -0.57935     -0.05390   -122.17243     -2.97418      0.64463     -2.10619     -2.19665
 -2.37     84.53550    -27.98355     -7.64714     81.24004   -139.68722   -107.28877     34.19887    179.42785     -0.56983     -0.05155   -121.28877     -2.91266      0.64664     -2.07564     -2.14324
 -2.36     83.09003    -29.07418     -7.29709     80.27626   -142.13295   -106.34987     34.24357    180.79792     -0.56008     -0.04919   -120.34987     -2.85197      0.64775     -2.04475     -2.09101
 -2.35     81.62861    -30.15859     -6.94681     79.31523   -144.56116   -105.38323     34.26973    182.15207     -0.55023     -0.04683   -119.38323     -2.79172      0.64840     -2.01370     -2.03939
 -2.34     80.13558    -31.23006     -6.59637     78.36096   -146.95255   -104.36091     34.25829    183.47286     -0.54017     -0.04446   -118.36091     -2.73237      0.64812     -1.98234     -1.98904
 -2.33     78.61932    -32.29116     -6.24628     77.41374   -149.31424   -103.29630     34.21793    184.76678     -0.52995     -0.04210   -117.29630     -2.67377      0.64712     -1.95075     -1.93969
 -2.32     77.08757    -33.34533     -5.89642     76.47122   -151.65612   -102.20348     34.15827    186.04279     -0.51962     -0.03975   -116.20348     -2.61565      0.64564     -1.91901     -1.89100
 -2.31     75.51792    -34.38105     -5.54794     75.54397   -153.94484   -101.03938     34.04927    187.27088     -0.50904     -0.03740   -115.03938     -2.55886      0.64293     -1.88692     -1.84409
 -2.30     73.93349    -35.40891     -5.20034     74.62432   -156.21075    -99.84650     33.92009    188.47856     -0.49836     -0.03505   -113.84650     -2.50263      0.63973     -1.85470     -1.79792
 -2.29     72.32686    -36.42498     -4.85405     73.71604   -158.44244    -98.61046     33.76068    189.65562     -0.48753     -0.03272   -112.61046     -2.44725      0.63577     -1.82228     -1.75286
 -2.28     70.69142    -37.42441     -4.51019     72.82605   -160.62525    -97.31644     33.56019    190.78936     -0.47651     -0.03040   -111.31644     -2.39309      0.63080     -1.78964     -1.70937
 -2.27     69.04177    -38.41527     -4.16770     71.94602   -162.78265    -95.99344     33.33902    191.90075     -0.46539     -0.02809   -109.99344     -2.33955      0.62531     -1.75689     -1.66668
 -2.26     67.36414    -39.38853     -3.82832     71.08753   -164.88731    -94.61250     33.07620    192.96610     -0.45408     -0.02581   -108.61250     -2.28732      0.61879     -1.72394     -1.62565
 -2.25     65.66620    -40.34788     -3.49177     70.24773   -166.94933    -93.18838     32.78184    193.99485     -0.44263     -0.02354   -107.18838     -2.23615      0.61148     -1.69089     -1.58593
 -2.24     63.95470    -41.29795     -3.15711     69.42039   -168.98291    -91.73545     32.46646    194.99920     -0.43110     -0.02128   -105.73545     -2.18569      0.60365     -1.65776     -1.54709
 -2.23     62.21055    -42.22367     -2.82805     68.62859   -170.94090    -90.21077     32.09812    195.93956     -0.41934     -0.01906   -104.21077     -2.13710      0.59451     -1.62449     -1.51053
 -2.22     60.45385    -43.13917     -2.50157     67.85278   -172.86679    -88.65758     31.70853    196.85314     -0.40750     -0.01686   -102.65758     -2.08931      0.58485     -1.59119     -1.47492
 -2.21     58.67831    -44.03936     -2.17897     67.10098   -174.74452    -87.06165     31.28707    197.72657     -0.39553     -0.01469   -101.06165     -2.04272      0.57439     -1.55785     -1.44074
 -2.20     56.87874    -44.91819     -1.86223     66.38480   -176.55424    -85.40938     30.82317    198.54419     -0.38340     -0.01255    -99.40938     -1.99781      0.56288     -1.52449     -1.40855
 -2.19     55.06745    -45.78612     -1.54860     65.68734   -178.32899    -83.72918     30.33811    199.33336     -0.37119     -0.01044    -97.72918     -1.95377      0.55084     -1.49113     -1.37737
 -2.18     53.23328    -46.63179     -1.24152     65.02913   -180.03186    -81.99359     29.81089    200.06455     -0.35883     -0.00837    -95.99359     -1.91151      0.53776     -1.45782     -1.34826
 -2.17     51.38284    -47.46007     -0.93988     64.40301   -181.67862    -80.21662     29.25217    200.75101     -0.34636     -0.00634    -94.21662     -1.87065      0.52389     -1.42458     -1.32074
 -2.16     49.52157    -48.27678     -0.64186     63.79830   -183.28797    -78.41207     28.67245    201.40766     -0.33381     -0.00433    -92.41207     -1.83071      0.50951     -1.39137     -1.29428
 -2.15     47.63475    -49.06340     -0.35375     63.25138   -184.79941    -76.53980     28.04090    201.98755     -0.32109     -0.00238    -90.53980     -1.79320      0.49383     -1.35835     -1.27057
 -2.14     45.73838    -49.83755     -0.06994     62.72920   -186.26965    -74.64146     27.38914    202.53581     -0.30831     -0.00047    -88.64146     -1.75672      0.47766     -1.32543     -1.24799
 -2.13     43.82767    -50.59300      0.20742     62.24412   -187.67809    -72.70401     26.70704    203.03663     -0.29543      0.00140    -86.70401     -1.72177      0.46074     -1.29267     -1.22710
 -2.12     41.89919    -51.32269      0.47554     61.81152   -189.00023    -70.71682     25.98582    203.47258     -0.28243      0.00321    -84.71682     -1.68896      0.44284     -1.26020     -1.20855
 -2.11     39.96228    -52.03927      0.73886     61.40586   -190.27822    -68.70560     25.24551    203.87574     -0.26937      0.00498    -82.70560     -1.65725      0.42447     -1.22790     -1.19118
 -2.10     38.00900    -52.72933      0.99232     61.05535   -191.46624    -66.64745     24.46771    204.21268     -0.25621      0.00669    -80.64745     -1.62777      0.40517     -1.19598     -1.17619
 -2.09     36.04466    -53.39889      1.23791     60.74796   -192.58413    -64.55667     23.66335    204.49914     -0.24297      0.00834    -78.55667     -1.60003      0.38521     -1.16440     -1.16303
 -2.08     34.07294    -54.05480      1.47827     60.46931   -193.65530    -62.44412     22.84125    204.75196     -0.22967      0.00996    -76.44412     -1.57344      0.36481     -1.13306     -1.15108
 -2.07     32.08466    -54.67573      1.70484     60.26483   -194.60584    -60.28168     21.97770    204.91977     -0.21627      0.01149    -74.28168     -1.54986      0.34338     -1.10240     -1.14223
 -2.06     30.09057    -55.28236      1.92563     60.09068   -195.50683    -58.10127     21.09886    205.05339     -0.20283      0.01298    -72.10127     -1.52750      0.32157     -1.07206     -1.13461
 -2.05     28.08776    -55.86753      2.13775     59.96205   -196.33348    -55.89392     20.19708    205.13573     -0.18933      0.01441    -69.89392     -1.50699      0.29919     -1.04220     -1.12887
 -2.04     26.07495    -56.42355      2.33783     59.89490   -197.05888    -53.65490     19.26756    205.14969     -0.17576      0.01576    -67.65490     -1.48898      0.27612     -1.01306     -1.12562
 -2.03     24.05756    -56.96487      2.53179     59.85854   -197.73326    -51.40117     18.32494    205.12955     -0.16216      0.01707    -65.40117     -1.47225      0.25273     -0.98431     -1.12362
 -2.02     22.03185    -57.47655      2.71329     59.88389   -198.30480    -49.12028     17.35765    205.04142     -0.14851      0.01829    -63.12028     -1.45807      0.22873     -0.95636     -1.12412
 -2.01     20.00116    -57.96569      2.88515     59.95524   -198.79844    -46.82247     16.37428    204.90284     -0.13482      0.01945    -60.82247     -1.44582      0.20433     -0.92909     -1.12647
 -2.00     17.96716    -58.43981      3.05060     60.05728   -199.24016    -44.51340     15.38019    204.73064     -0.12111      0.02056    -58.51340     -1.43486      0.17966     -0.90226     -1.13005
 -1.99     15.92699    -58.87596      3.19959     60.23485   -199.55147    -42.18203     14.36351    204.47573     -0.10736      0.02157    -56.18203     -1.42713      0.15443     -0.87664     -1.13669
 -1.98     13.88522    -59.29680      3.34186     60.44189   -199.81070    -39.84410     13.33951    204.18847     -0.09360      0.02253    -53.84410     -1.42070      0.12902     -0.85153     -1.14452
 -1.97     11.84102    -59.69466      3.47406     60.69317   -199.99177    -37.49631     12.30452    203.85265     -0.07982      0.02342    -51.49631     -1.41621      0.10334     -0.82721     -1.15414
 -1.96      9.79531    -60.06171      3.59262     61.00145   -200.06932    -35.14001     11.25835    203.45382     -0.06603      0.02422    -49.14001     -1.41428      0.07738     -0.80399     -1.16610
 -1.95      7.74926    -60.41334      3.70431     61.33764   -200.09540    -32.78056     10.20743    203.02398     -0.05224      0.02497    -46.78056     -1.41363      0.05130     -0.78133     -1.17920
 -1.94      5.70337    -60.73406      3.80221     61.72847   -200.01913    -30.41707      9.14874    202.53310     -0.03844      0.02563    -44.41707     -1.41553      0.02503     -0.75983     -1.19457
 -1.93      3.65884    -61.03157      3.88968     62.15819   -199.86734    -28.05374      8.08671    201.99808     -0.02466      0.02622    -42.05374     -1.41929     -0.00133     -0.73923     -1.21158
 -1.92      1.61523    -61.31361      3.97020     62.61386   -199.66519    -25.69052      7.02247    201.43363     -0.01089      0.02676    -39.69052     -1.42431     -0.02774     -0.71923     -1.22969
 -1.91     -0.42406    -61.55702      4.03329     63.13057   -199.33973    -23.33260      5.95670    200.79855      0.00286      0.02719    -37.33260     -1.43239     -0.05418     -0.70080     -1.25042
 -1.90     -2.46082    -61.78503      4.08942     63.67006   -198.96613    -20.97867      4.89185    200.13646      0.01659      0.02757    -34.97867     -1.44166     -0.08061     -0.68300     -1.27215
 -1.89     -4.49382    -61.98994      4.13509     64.24374   -198.52033    -18.63069      3.82837    199.43384      0.03029      0.02787    -32.63069     -1.45272     -0.10700     -0.66617     -1.29540
 -1.88     -6.52019    -62.16421      4.16687     64.85957   -197.98084    -16.29378      2.76948    198.67964      0.04395      0.02809    -30.29378     -1.46611     -0.13328     -0.65064     -1.32057
 -1.87     -8.54288    -62.32319      4.19173     65.49560   -197.39509    -13.96274      1.71336    197.90014      0.05758      0.02826    -27.96274     -1.48064     -0.15948     -0.63576     -1.34668
 -1.86    -10.55745    -62.45173      4.20280     66.17026   -196.71800    -11.64413      0.66373    197.07105      0.07116      0.02833    -25.64413     -1.49744     -0.18553     -0.62220     -1.37464
 -1.85    -12.56483    -62.55759      4.20362     66.87121   -195.97446     -9.33674     -0.37923    196.20660      0.08470      0.02834    -23.33674     -1.51589     -0.21141     -0.60964     -1.40391
 -1.84    -14.56741    -62.64834      4.19760     67.58970   -195.18662     -7.03682     -1.41776    195.31857      0.09819      0.02829    -21.03682     -1.53544     -0.23718     -0.59773     -1.43407
 -1.83    -16.55622    -62.70162      4.17470     68.34757   -194.29165     -4.75866     -2.44232    194.37476      0.11160      0.02814    -18.75866     -1.55765     -0.26261     -0.58751     -1.46632
 -1.82    -18.53886    -62.74008      4.14514     69.11945   -193.35530     -2.49027     -3.46026    193.40986      0.12496      0.02794    -16.49027     -1.58089     -0.28787     -0.57795     -1.49935
 -1.81    -20.51217    -62.75630      4.10561     69.91234   -192.35690     -0.23661     -4.46822    192.41337      0.13827      0.02767    -14.23661     -1.60566     -0.31288     -0.56940     -1.53357
 -1.80    -22.47176    -62.74318      4.05301     70.72983   -191.27875      1.99550     -5.46097    191.37721      0.15147      0.02732    -12.00450     -1.63242     -0.33751     -0.56220     -1.56928
 -1.79    -24.42417    -62.71550      3.99393     71.55880   -190.16151      4.21636     -6.44565    190.32184      0.16464      0.02692     -9.78364     -1.66014     -0.36195     -0.55568     -1.60571
 -1.78    -26.36158    -62.65886      3.92205     72.40909   -188.96764      6.41373     -7.41326    189.22933      0.17769      0.02644     -7.58627     -1.68977     -0.38596     -0.55050     -1.64354
 -1.77    -28.28681    -62.58080      3.84078     73.27301   -187.71889      8.59178     -8.36661    188.11104      0.19067      0.02589     -5.40822     -1.72076     -0.40962     -0.54632     -1.68236
 -1.76    -30.20392    -62.48847      3.75326     74.14602   -186.43354     10.75695     -9.31047    186.97557      0.20359      0.02530     -3.24305     -1.75265     -0.43304     -0.54281     -1.72182
 -1.75    -32.09928    -62.36098      3.65050     75.03801   -185.06052     12.88825    -10.22879    185.80007      0.21637      0.02461     -1.11175     -1.78672     -0.45583     -0.54097     -1.76281
 -1.74    -33.98538    -62.21966      3.54182     75.93617   -183.65390     15.00546    -11.13626    184.60969      0.22908      0.02387      1.00546     -1.82163     -0.47835     -0.53979     -1.80438
 -1.73    -35.85759    -62.05759      3.42426     76.84360   -182.19688     17.10154    -12.02746    183.39700      0.24170      0.02308      3.10154     -1.85779     -0.50046     -0.53960     -1.84680
 -1.72    -37.71019    -61.86833      3.29522     77.76069   -180.67550     19.16849    -12.89586    182.15675      0.25419      0.02221      5.16849     -1.89554     -0.52201     -0.54072     -1.89029
 -1.71    -39.55274    -61.66558      3.16053     78.68199   -179.12265     21.22069    -13.75260    180.90325      0.26661      0.02130      7.22069     -1.93407     -0.54327     -0.54249     -1.93429
 -1.70    -41.37465    -61.43611      3.01474     79.61042   -177.50821     23.24299    -14.58556    179.62434      0.27889      0.02032      9.24299     -1.97413     -0.56394     -0.54554     -1.97930
 -1.69    -43.18036    -61.18698      2.86093     80.54242   -175.84963     25.24232    -15.40000    178.32795      0.29106      0.01928     11.24232     -2.01529     -0.58415     -0.54956     -2.02500
 -1.68    -44.97525    -60.92474      2.70176     81.47681   -174.16162     27.22634    -16.20210    177.01992      0.30316      0.01821     13.22634     -2.05718     -0.60406     -0.55421     -2.07116
 -1.67    -46.74195    -60.63037      2.52974     82.41438   -172.40501     29.16946    -16.97164    175.68661      0.31507      0.01705     15.16946     -2.10077     -0.62315     -0.56043     -2.11837
 -1.66    -48.49695    -60.32342      2.35279     83.35221   -170.62257     31.09570    -17.72773    174.34443      0.32690      0.01586     17.09570     -2.14500     -0.64191     -0.56726     -2.16594
 -1.65    -50.23438    -59.99760      2.16845     84.29042   -168.80139     32.99659    -18.46363    172.98892      0.33861      0.01462     18.99659     -2.19019     -0.66018     -0.57502     -2.21408
 -1.64    -51.94757    -59.64718      1.97470     85.22724   -166.93103     34.86346    -19.17216    171.61755      0.35016      0.01331     20.86346     -2.23661     -0.67776     -0.58398     -2.26290
 -1.63    -53.64845    -59.28459      1.77635     86.16292   -165.03664     36.71332    -19.86691    170.23870      0.36163      0.01197     22.71332     -2.28362     -0.69500     -0.59354     -2.31206
 -1.62    -55.32429    -58.89796      1.56905     87.09543   -163.09546     38.52898    -20.53390    168.84587      0.37292      0.01058     24.52898     -2.33179     -0.71155     -0.60428     -2.36186
 -1.61    -56.98080    -58.49371      1.35537     88.02431   -161.12086     40.31894    -21.17984    167.44390      0.38409      0.00914     26.31894     -2.38079     -0.72758     -0.61590     -2.41209
 -1.60    -58.62442    -58.07772      1.13745     88.95079   -159.12396     42.09176    -21.81175    166.03585      0.39517      0.00767     28.09176     -2.43034     -0.74326     -0.62809     -2.46262
 -1.59    -60.23493    -57.63308      0.90947     89.86929   -157.07403     43.82171    -22.40830    164.61483      0.40602      0.00613     29.82171     -2.48121     -0.75806     -0.64172     -2.51381
 -1.58    -61.83186    -57.17726      0.67771     90.78389   -155.00391     45.53449    -22.99061    163.18952      0.41679      0.00457     31.53449     -2.53258     -0.77251     -0.65590     -2.56525
 -1.57    -63.40843    -56.70465      0.44026     91.69263   -152.90348     47.22157    -23.55158    161.75776      0.42742      0.00297     33.22157     -2.58470     -0.78643     -0.67092     -2.61706
 -1.56    -64.95718    -56.21026      0.19570     92.59221   -150.76572     48.87351    -24.08371    160.31992      0.43786      0.00132     34.87351     -2.63775     -0.79964     -0.68702     -2.66930
 -1.55    -66.49188    -55.70511     -0.05229     93.48691   -148.60994     50.50780    -24.60136    158.87958      0.44820     -0.00035     36.50780     -2.69124     -0.81248     -0.70366     -2.72173
 -1.54    -67.99819    -55.17874     -0.30691     94.37122   -146.41938     52.10660    -25.09000    157.43533      0.45835     -0.00207     38.10660     -2.74560     -0.82461     -0.72136     -2.77452
 -1.53    -69.48279    -54.63690     -0.56615     95.24690   -144.20406     53.67893    -25.55691    155.98942      0.46836     -0.00382     39.67893     -2.80058     -0.83619     -0.73983     -2.82756
 -1.52    -70.95292    -54.08474     -0.82847     96.11683   -141.97223     55.23362    -26.00933    154.54240      0.47827     -0.00558     41.23362     -2.85596     -0.84742     -0.75881     -2.88077
 -1.51    -72.38620    -53.50750     -1.09790     96.97103   -139.70124     56.74446    -26.42567    153.09473      0.48793     -0.00740     42.74446     -2.91231     -0.85775     -0.77906     -2.93434
 -1.50    -73.80451    -52.92051     -1.36994     97.81846   -137.41539     58.23789    -26.82763    151.64768      0.49749     -0.00923     44.23789     -2.96904     -0.86773     -0.79980     -2.98805
 -1.49    -75.20033    -52.31890     -1.64588     98.65570   -135.10723     59.70518    -27.20803    150.20152      0.50690     -0.01109     45.70518     -3.02631     -0.87717     -0.82129     -3.04196
 -1.48    -76.56571    -51.69838     -1.92657     99.47846   -132.77077     61.13791    -27.55985    148.75827      0.51610     -0.01299     47.13791     -3.08429     -0.88590     -0.84373     -3.09609
 -1.47    -77.91575    -51.06853     -2.20952    100.29376   -130.41978     62.55384    -27.89753    147.31648      0.52521     -0.01489     48.55384     -3.14263     -0.89428     -0.86666     -3.15036
 -1.46    -79.23487    -50.42031     -2.49675    101.09367   -128.03898     63.93716    -28.20720    145.87761      0.53410     -0.01683     49.93716     -3.20171     -0.90196     -0.89057     -3.20490
 -1.45    -80.53044    -49.75870     -2.78685    101.88139   -125.63574     65.29669    -28.49607    144.44178      0.54283     -0.01879     51.29669     -3.26135     -0.90913     -0.91520     -3.25965
 -1.44    -81.81030    -49.08817     -3.07886    102.66098   -123.21754     66.64037    -28.77109    143.00797      0.55146     -0.02075     52.64037     -3.32136     -0.91595     -0.94031     -3.31454
 -1.43    -83.05030    -48.39598     -3.37509    103.41920   -120.76366     67.94441    -29.01155    141.58186      0.55982     -0.02275     53.94441     -3.38225     -0.92192     -0.96661     -3.36975
 -1.42    -84.27413    -47.69539     -3.67278    104.16847   -118.29617     69.23260    -29.23826    140.15994      0.56806     -0.02476     55.23260     -3.44348     -0.92755     -0.99337     -3.42507
 -1.41    -85.47371    -46.98218     -3.97266    104.90434   -115.80821     70.49701    -29.44433    138.74426      0.57615     -0.02678     56.49701     -3.50522     -0.93266     -1.02083     -3.48056
 -1.40    -86.64050    -46.25268     -4.27502    105.62158   -113.29432     71.72971    -29.62303    137.33923      0.58402     -0.02882     57.72971     -3.56760     -0.93710     -1.04920     -3.53625
 -1.39    -87.79080    -45.51518     -4.57850    106.32934   -110.76775     72.94656    -29.78808    135.94009      0.59177     -0.03086     58.94656     -3.63030     -0.94119     -1.07803     -3.59204
 -1.38    -88.90791    -44.76189     -4.88401    107.01779   -108.21645     74.13171    -29.92593    134.55392      0.59930     -0.03292     60.13171     -3.69361     -0.94461     -1.10774     -3.64801
 -1.37    -89.99982    -43.99717     -5.19070    107.69126   -105.64750     75.29310    -30.04352    133.17931      0.60666     -0.03499     61.29310     -3.75736     -0.94753     -1.13811     -3.70409
 -1.36    -91.07493    -43.22483     -5.49818    108.35475   -103.06678     76.43865    -30.14761    131.81239      0.61391     -0.03706     62.43865     -3.82140     -0.95011     -1.16891     -3.76025
 -1.35    -92.10760    -42.43406     -5.80710    108.99253   -100.45809     77.54461    -30.21820    130.46789      0.62087     -0.03914     63.54461     -3.88613     -0.95186     -1.20078     -3.81657
 -1.34    -93.12311    -41.63619     -6.11637    109.61974    -97.84104     78.63384    -30.27550    129.13476      0.62771     -0.04123     64.63384     -3.95108     -0.95329     -1.23304     -3.87290
 -1.33    -94.11290    -40.82766     -6.42616    110.23112    -95.21143     79.69797    -30.31284    127.81870      0.63438     -0.04332     65.69797     -4.01633     -0.95421     -1.26588     -3.92924
 -1.32    -95.06818    -40.00550     -6.73623    110.82098    -92.57169     80.72667    -30.32392    126.53038      0.64082     -0.04541     66.72667     -4.08183     -0.95449     -1.29940     -3.98547
 -1.31    -96.00617    -39.17666     -7.04633    111.40000    -89.92704     81.73780    -30.32201    125.25642      0.64715     -0.04750     67.73780     -4.14746     -0.95444     -1.33327     -4.04163
 -1.30    -96.90950    -38.33475     -7.35628    111.95718    -87.27294     82.71401    -30.29435    124.01217      0.65324     -0.04959     68.71401     -4.21332     -0.95375     -1.36780     -4.09766
 -1.29    -97.78672    -37.48348     -7.66580    112.49774    -84.61221     83.66440    -30.24778    122.79171      0.65915     -0.05167     69.66440     -4.27935     -0.95260     -1.40281     -4.15360
 -1.28    -98.64654    -36.62594     -7.97504    113.02723    -81.94703     84.59760    -30.18859    121.58710      0.66494     -0.05376     70.59760     -4.34548     -0.95113     -1.43815     -4.20946
 -1.27    -99.46266    -35.75350     -8.28306    113.52865    -79.27156     85.48835    -30.09849    120.42475      0.67045     -0.05583     71.48835     -4.41188     -0.94889     -1.47428     -4.26515
 -1.26   -100.26124    -34.87536     -8.59038    114.01872    -76.59222     86.36232    -29.99629    119.28038      0.67583     -0.05791     72.36232     -4.47836     -0.94636     -1.51071     -4.32077
 -1.25   -101.03351    -33.98869     -8.89668    114.49176    -73.90708     87.21116    -29.87591    118.16297      0.68103     -0.05997     73.21116     -4.54500     -0.94337     -1.54760     -4.37628
 -1.24   -101.77057    -33.09118     -9.20120    114.94182    -71.21473     88.02687    -29.73181    117.08370      0.68600     -0.06202     74.02687     -4.61181     -0.93979     -1.58509     -4.43164
 -1.23   -102.48999    -32.18838     -9.50474    115.38035    -68.51888     88.82611    -29.57595    116.02405      0.69085     -0.06407     74.82611     -4.67870     -0.93593     -1.62287     -4.48693
 -1.22   -103.17410    -31.27528     -9.80612    115.79568    -65.81629     89.59259    -29.39685    115.00477      0.69546     -0.06610     75.59259     -4.74577     -0.93148     -1.66123     -4.54205
 -1.21   -103.83163    -30.35486    -10.10561    116.19345    -63.10897     90.33477    -29.20068    114.01747      0.69990     -0.06812     76.33477     -4.81295     -0.92661     -1.70002     -4.59707
 -1.20   -104.47146    -29.42955    -10.40383    116.57951    -60.39850     91.06074    -28.99312    113.05149      0.70421     -0.07013     77.06074     -4.88021     -0.92146     -1.73909     -4.65200
 -1.19   -105.06687    -28.49269    -10.69843    116.93604    -57.68069     91.74658    -28.75770    112.14167      0.70822     -0.07211     77.74658     -4.94765     -0.91562     -1.77884     -4.70673
 -1.18   -105.64447    -27.55148    -10.99140    117.28067    -54.96012     92.41652    -28.51137    111.25546      0.71212     -0.07409     78.41652     -5.01516     -0.90951     -1.81887     -4.76138
 -1.17   -106.19536    -26.60372    -11.28192    117.60745    -52.23545     93.06261    -28.24867    110.40466      0.71583     -0.07605     79.06261     -5.08278     -0.90299     -1.85929     -4.81591
 -1.16   -106.71054    -25.64777    -11.56882    117.91024    -49.50566     93.67713    -27.96461    109.60337      0.71930     -0.07798     79.67713     -5.15052     -0.89594     -1.90024     -4.87028
 -1.15   -107.20786    -24.68784    -11.85384    118.20101    -46.77337     94.27595    -27.66998    108.82739      0.72265     -0.07990     80.27595     -5.21832     -0.88863     -1.94144     -4.92456
 -1.14   -107.66938    -23.72023    -12.13490    118.46763    -44.03636     94.84344    -27.35446    108.10315      0.72576     -0.08180     80.84344     -5.28624     -0.88080     -1.98315     -4.97867
 -1.13   -108.10400    -22.74725    -12.41273    118.71603    -41.29604     95.38758    -27.02361    107.41937      0.72869     -0.08367     81.38758     -5.35424     -0.87259     -2.02523     -5.03266
 -1.12   -108.52070    -21.77068    -12.68841    118.95228    -38.55350     95.91617    -26.68253    106.76255      0.73150     -0.08553     81.91617     -5.42230     -0.86413     -2.06756     -5.08656
 -1.11   -108.89248    -20.78577    -12.95830    119.15800    -35.80584     96.40608    -26.31647    106.17578      0.73401     -0.08735     82.40608     -5.49048     -0.85504     -2.11049     -5.14025
 -1.10   -109.24626    -19.79779    -13.22572    119.35145    -33.05629     96.88060    -25.94064    105.61802      0.73639     -0.08915     82.88060     -5.55871     -0.84572     -2.15365     -5.19386
 -1.09   -109.57304    -18.80518    -13.48943    119.52648    -30.30390     97.33203    -25.55014    105.10379      0.73860     -0.09093     83.33203     -5.62701     -0.83603     -2.19716     -5.24734
 -1.08   -109.86377    -17.80692    -13.74787    119.67685    -27.54800     97.75279    -25.14055    104.64945      0.74056     -0.09267     83.75279     -5.69540     -0.82586     -2.24113     -5.30064
 -1.07   -110.13645    -16.80596    -14.00359    119.81486    -24.79043     98.15825    -24.72153    104.22548      0.74239     -0.09439     84.15825     -5.76383     -0.81546     -2.28532     -5.35387
 -1.06   -110.37303    -15.79983    -14.25374    119.92810    -22.02965     98.53314    -24.28385    103.86311      0.74399     -0.09608     84.53314     -5.83233     -0.80460     -2.32996     -5.40691
 -1.05   -110.58248    -14.79022    -14.49948    120.02270    -19.26695     98.88513    -23.83255    103.54808      0.74540     -0.09774     84.88513     -5.90089     -0.79340     -2.37491     -5.45983
 -1.04   -110.77385    -13.77827    -14.74229    120.10488    -16.50297     99.22185    -23.37219    103.26463      0.74669     -0.09937     85.22185     -5.96948     -0.78198     -2.42007     -5.51265
 -1.03   -110.91999    -12.76113    -14.97737    120.15590    -13.73658     99.52042    -22.88977    103.06168      0.74768     -0.10096     85.52042     -6.03813     -0.77001     -2.46574     -5.56524
 -1.02   -111.04801    -11.74215    -15.20924    120.19443    -10.96914     99.80377    -22.39872    102.89143      0.74854     -0.10252     85.80377     -6.10680     -0.75782     -2.51161     -5.61774
 -1.01   -111.14886    -10.72043    -15.43626    120.21423     -8.20022    100.06429    -21.89474    102.77022      0.74922     -0.10405     86.06429     -6.17551     -0.74532     -2.55778     -5.67010
 -1.00   -111.21344     -9.69555    -15.65654    120.20899     -5.42917    100.29439    -21.37388    102.71517      0.74965     -0.10554     86.29439     -6.24428     -0.73239     -2.60434     -5.72229
 -0.99   -111.25989     -8.66922    -15.87339    120.19123     -2.65702    100.50929    -20.84467    102.69335      0.74997     -0.10700     86.50929     -6.31307     -0.71926     -2.65110     -5.77440
 -0.98   -111.27004     -7.64022    -16.08322    120.14838      0.11739    100.69377    -20.29895    102.73825      0.75004     -0.10841     86.69377     -6.38191     -0.70572     -2.69824     -5.82634
 -0.97   -111.25295     -6.60960    -16.28760    120.08669      2.89357    100.85540    -19.74112    102.83345      0.74992     -0.10979     86.85540     -6.45080     -0.69188     -2.74567     -5.87815
 -0.96   -111.21768     -5.57790    -16.48835    120.01243      5.67094    101.00179    -19.17522    102.96218      0.74968     -0.11114     87.00179     -6.51972     -0.67783     -2.79329     -5.92989
 -0.95   -111.13695     -4.54411    -16.67967    119.90673      8.45071    101.10997    -18.58973    103.17480      0.74914     -0.11243     87.10997     -6.58870     -0.66330     -2.84137     -5.98143
 -0.94   -111.03802     -3.50975    -16.86710    119.78844     11.23107    101.20278    -17.99668    103.42084      0.74847     -0.11370     87.20278     -6.65770     -0.64859     -2.88962     -6.03287
 -0.93   -110.91180     -2.47450    -17.04869    119.65127     14.01231    101.27256    -17.39229    103.71699      0.74762     -0.11492     87.27256     -6.72672     -0.63359     -2.93812     -6.08419
 -0.92   -110.74916     -1.43860    -17.22225    119.48892     16.79448    101.31148    -16.77323    104.07941      0.74652     -0.11609     87.31148     -6.79576     -0.61823     -2.98696     -6.13534
 -0.91   -110.56832     -0.40249    -17.39173    119.31400     19.57706    101.33492    -16.14694    104.47477      0.74531     -0.11723     87.33492     -6.86480     -0.60269     -3.03597     -6.18639
 -0.90   -110.35104      0.63377    -17.55294    119.11392     22.36032    101.32734    -15.50645    104.93559      0.74384     -0.11832     87.32734     -6.93387     -0.58679     -3.08529     -6.23728
 -0.89   -110.10644      1.66978    -17.70778    118.89498     25.14394    101.29634    -14.85563    105.44473      0.74219     -0.11936     87.29634     -7.00295     -0.57064     -3.13485     -6.28804
 -0.88   -109.84363      2.70560    -17.85838    118.66349     27.92774    101.24972    -14.19793    105.98607      0.74042     -0.12038     87.24972     -7.07203     -0.55432     -3.18456     -6.33871
 -0.87   -109.53526      3.74033    -17.99807    118.40063     30.71175    101.16379    -13.52364    106.60633      0.73834     -0.12132     87.16379     -7.14111     -0.53759     -3.23464     -6.38916
 -0.86   -109.20867      4.77438    -18.13330    118.12525     33.49572    101.06200    -12.84293    107.25742      0.73614     -0.12223     87.06200     -7.21020     -0.52070     -3.28486     -6.43953
 -0.85   -108.85476      5.80738    -18.26183    117.83110     36.27961    100.93642    -12.15262    107.95476      0.73376     -0.12310     86.93642     -7.27928     -0.50357     -3.33529     -6.48977
 -0.84   -108.46441      6.83848    -18.38122    117.51198     39.06314    100.77884    -11.44998    108.71209      0.73112     -0.12390     86.77884     -7.34835     -0.48613     -3.38599     -6.53984
 -0.83   -108.05584      7.86850    -18.49600    117.18041     41.84641    100.60518    -10.74130    109.49897      0.72837     -0.12468     86.60518     -7.41742     -0.46855     -3.43682     -6.58982
 -0.82   -107.61084      8.89608    -18.60144    116.82395     44.62904    100.39919    -10.02079    110.34404      0.72537     -0.12539     86.39919     -7.48647     -0.45067     -3.48790     -6.63962
 -0.81   -107.13853      9.92145    -18.69974    116.44892     47.41094    100.16869     -9.29179    111.23129      0.72219     -0.12605     86.16869     -7.55550     -0.43258     -3.53917     -6.68930
 -0.80   -106.64801     10.94533    -18.79327    116.06149     50.19237     99.92185     -8.55712    112.14666      0.71888     -0.12668     85.92185     -7.62452     -0.41434     -3.59056     -6.73889
 -0.79   -106.11200     11.96483    -18.87467    115.64325     52.97223     99.63366     -7.80894    113.12977      0.71527     -0.12723     85.63366     -7.69351     -0.39578     -3.64222     -6.78827
 -0.78   -105.55780     12.98231    -18.95114    115.21275     55.75128     99.32874     -7.05563    114.13891      0.71153     -0.12774     85.32874     -7.76247     -0.37709     -3.69400     -6.83756
 -0.77   -104.97631     13.99677    -19.02019    114.76386     58.52918     98.99868     -6.29460    115.18711      0.70761     -0.12821     84.99868     -7.83140     -0.35820     -3.74593     -6.88671
 -0.76   -104.35848     15.00662    -19.07921    114.29062     61.30510     98.63467     -5.52385    116.28516      0.70345     -0.12861     84.63467     -7.90029     -0.33907     -3.79806     -6.93570
 -0.75   -103.72249     16.01404    -19.13316    113.80525     64.07995     98.25355     -4.74838    117.40757      0.69916     -0.12897     84.25355     -7.96914     -0.31983     -3.85029     -6.98459
 -0.74   -103.05019     17.01629    -19.17692    113.29570     66.85249     97.83797     -3.96375    118.57760      0.69463     -0.12927     83.83797     -8.03794     -0.30036     -3.90269     -7.03331
 -0.73   -102.35069     18.01425    -19.21292    112.76818     69.62300     97.39615     -3.17270    119.78165      0.68991     -0.12951     83.39615     -8.10669     -0.28073     -3.95521     -7.08190
 -0.72   -101.63306     19.00935    -19.24375    112.22867     72.39216     96.93682     -2.37736    121.00836      0.68508     -0.12972     82.93682     -8.17541     -0.26099     -4.00782     -7.13039
 -0.71   -100.87014     19.99657    -19.26149    111.65950     75.15740     96.43302     -1.57206    122.28891      0.67993     -0.12984     82.43302     -8.24403     -0.24101     -4.06060     -7.17867
 -0.70   -100.08915     20.98035    -19.27392    111.07858     77.92084     95.91112     -0.76310    123.58986      0.67467     -0.12992     81.91112     -8.31261     -0.22094     -4.11345     -7.22685
 -0.69    -99.28103     21.95895    -19.27841    110.48005     80.68159     95.36206      0.05136    124.92138      0.66922     -0.12995     81.36206     -8.38111     -0.20073     -4.16640     -7.27490
 -0.68    -98.43680     22.93007    -19.27218    109.85833     83.43803     94.77618      0.87243    126.29129      0.66353     -0.12991     80.77618     -8.44951     -0.18035     -4.21944     -7.32276
 -0.67    -97.57456     23.89730    -19.26056    109.22510     86.19028     94.17216      1.69605    127.67882      0.65772     -0.12983     80.17216     -8.51781     -0.15991     -4.27249     -7.37049
 -0.66    -96.67633     24.85645    -19.23815    108.56905     88.93015     93.53240      2.52330    129.09844      0.65166     -0.12968     79.53240     -8.58580     -0.13938     -4.32548     -7.41790
 -0.65    -95.75131     25.80909    -19.20760    107.89629     91.65727     92.86620      3.35178    130.53843      0.64543     -0.12947     78.86620     -8.65348     -0.11883     -4.37834     -7.46502
 -0.64    -94.80842     26.75742    -19.17163    107.21238     94.37593     92.18238      4.18110    131.99200      0.63907     -0.12923     78.18238     -8.72094     -0.09825     -4.43112     -7.51194
 -0.63    -93.82124     27.69419    -19.12208    106.50136     97.07195     91.45422      5.01126    133.47556      0.63242     -0.12890     77.45422     -8.78784     -0.07765     -4.48365     -7.55835
 -0.62    -92.81649     28.62604    -19.06710    105.77983     99.75836     90.70820      5.84127    134.96955      0.62565     -0.12853     76.70820     -8.85450     -0.05705     -4.53606     -7.60455
 -0.61    -91.78540     29.55053    -19.00397    105.04252    102.43036     89.93539      6.67105    136.47922      0.61870     -0.12810     75.93539     -8.92081     -0.03646     -4.58829     -7.65045
 -0.60    -90.71949     30.46460    -18.92999    104.28488    105.08196     89.12660      7.49952    138.00674      0.61151     -0.12760     75.12660     -8.98661     -0.01590     -4.64026     -7.69591
 -0.59    -89.63626     31.37333    -18.85059    103.51726    107.72306     88.29975      8.32708    139.54244      0.60421     -0.12707     74.29975     -9.05215      0.00464     -4.69207     -7.74115
 -0.58    -88.51857     32.27105    -18.76037    102.73006    110.34256     87.43666      9.15230    141.09301      0.59668     -0.12646     73.43666     -9.11715      0.02511     -4.74358     -7.78596
 -0.57    -87.37531     33.16008    -18.66207    101.92879    112.94491     86.54618      9.97496    142.65255      0.58897     -0.12580     72.54618     -9.18173      0.04553     -4.79483     -7.83042
 -0.56    -86.21499     34.04331    -18.55838    101.11814    115.53582     85.63745     10.79593    144.21807      0.58115     -0.12510     71.63745     -9.24602      0.06590     -4.84590     -7.87465
 -0.55    -85.01252     34.91129    -18.44130    100.28516    118.09666     84.68268     11.61133    145.79502      0.57304     -0.12431     70.68268     -9.30957      0.08614     -4.89649     -7.91830
 -0.54    -83.79339     35.77287    -18.31891     99.44370    120.64648     83.70868     12.42450    147.37622      0.56482     -0.12348     69.70868     -9.37284      0.10631     -4.94690     -7.96173
 -0.53    -82.54925     36.62485    -18.18853     98.58953    123.17977     82.70583     13.23429    148.96380      0.55644     -0.12260     68.70583     -9.43571      0.12641     -4.99705     -8.00485
 -0.52    -81.27214     37.46337    -18.04760     97.71936    125.69130     81.66337     14.03902    150.55834      0.54783     -0.12165     67.66337     -9.49803      0.14638     -5.04682     -8.04756
 -0.51    -79.97860     38.29502    -17.90141     96.84143    128.19164     80.60095     14.84092    152.15578      0.53911     -0.12067     66.60095     -9.56008      0.16628     -5.09640     -8.09006
 -0.50    -78.65247     39.11255    -17.74475     95.94852    130.66878     79.49836     15.63659    153.75767      0.53017     -0.11961     65.49836     -9.62155      0.18602     -5.14557     -8.13213
 -0.49    -77.30217     39.91901    -17.58032     95.04519    133.12740     78.36519     16.42668    155.36106      0.52107     -0.11850     64.36519     -9.68256      0.20563     -5.19439     -8.17387
 -0.48    -75.93575     40.71809    -17.41072     94.13491    135.57369     77.21163     17.21306    156.96545      0.51186     -0.11736     63.21163     -9.74326      0.22514     -5.24299     -8.21538
 -0.47    -74.52958     41.49787    -17.22834     93.20874    137.98713     76.00638     17.98860    158.56921      0.50238     -0.11613     62.00638     -9.80315      0.24439     -5.29096     -8.25632
 -0.46    -73.10773     42.26959    -17.04092     92.27686    140.38646     74.78022     18.75910    160.17137      0.49280     -0.11487     60.78022     -9.86269      0.26351     -5.33865     -8.29702
 -0.45    -71.66235     43.02922    -16.84595     91.33640    142.76462     73.52269     19.52206    161.77115      0.48305     -0.11355     59.52269     -9.92170      0.28244     -5.38592     -8.33735
 -0.44    -70.18610     43.77206    -16.64109     90.38592    145.11117     72.22364     20.27311    163.36413      0.47310     -0.11217     58.22364     -9.97993      0.30108     -5.43256     -8.37715
 -0.43    -68.69455     44.50632    -16.43133     89.43081    147.44136     70.90375     21.01783    164.95300      0.46305     -0.11076     56.90375    -10.03776      0.31956     -5.47885     -8.41668
 -0.42    -67.17265     45.22310    -16.21189     88.46722    149.73774     69.54202     21.74915    166.53225      0.45279     -0.10928     55.54202    -10.09474      0.33771     -5.52445     -8.45564
 -0.41    -65.62844     45.92626    -15.98536     87.49850    152.00724     68.14857     22.46934    168.10229      0.44238     -0.10775     54.14857    -10.15106      0.35558     -5.56948     -8.49417
 -0.40    -64.06934     46.62033    -15.75410     86.52637    154.25883     66.73398     23.18210    169.66620      0.43187     -0.10619     52.73398    -10.20693      0.37326     -5.61414     -8.53240
 -0.39    -62.47378     47.29082    -15.51135     85.54795    156.46292     65.26601     23.87443    171.21141      0.42112     -0.10456     51.26601    -10.26163      0.39044     -5.65777     -8.56988
 -0.38    -60.86396     47.95152    -15.26414     84.56797    158.64687     63.77649     24.55780    172.74778      0.41026     -0.10289     49.77649    -10.31582      0.40740     -5.70096     -8.60703
 -0.37    -59.23275     48.59755    -15.01024     83.58565    160.80061     62.25466     25.22775    174.27088      0.39927     -0.10118     48.25466    -10.36927      0.42403     -5.74349     -8.64370
 -0.36    -57.57370     49.22331    -14.74772     82.60230    162.91164     60.68939     25.87819    175.77352      0.38809     -0.09941     46.68939    -10.42165      0.44017     -5.78508     -8.67970
 -0.35    -55.90090     49.83875    -14.48099     81.61900    165.00052     59.10247     26.51841    177.26510      0.37681     -0.09761     45.10247    -10.47349      0.45605     -5.82617     -8.71535
 -0.34    -54.20098     50.43320    -14.20597     80.63689    167.04349     57.47234     27.13728    178.73292      0.36535     -0.09576     43.47234    -10.52418      0.47141     -5.86624     -8.75029
 -0.33    -52.48131     51.01140    -13.92502     79.65751    169.04864     55.81084     27.73844    180.17975      0.35376     -0.09386     41.81084    -10.57394      0.48633     -5.90546     -8.78464
 -0.32    -50.74843     51.57877    -13.64012     78.67992    171.02865     54.12838     28.32783    181.61262      0.34208     -0.09194     40.12838    -10.62308      0.50096     -5.94412     -8.81861
 -0.31    -48.98373     52.11817    -13.34583     77.71018    172.94201     52.39384     28.88556    183.00670      0.33018     -0.08996     38.39384    -10.67056      0.51480     -5.98127     -8.85155
 -0.30    -47.20675     52.64605    -13.04800     76.74496    174.82731     50.63852     29.42977    184.38377      0.31821     -0.08795     36.63852    -10.71734      0.52830     -6.01777     -8.88406
 -0.29    -45.41132     53.15664    -12.74486     75.78654    176.67048     48.85205     29.95370    185.73534      0.30610     -0.08591     34.85205    -10.76308      0.54130     -6.05332     -8.91593
 -0.28    -43.59224     53.64352    -12.43509     74.84015    178.45449     47.02433     30.44886    187.04987      0.29384     -0.08382     33.02433    -10.80735      0.55359     -6.08752     -8.94691
 -0.27    -41.76159     54.11836    -12.12213     73.90056    180.20813     45.17609     30.92918    188.34511      0.28150     -0.08171     31.17609    -10.85086      0.56551     -6.12101     -8.97742
 -0.26    -39.90829     54.56881    -11.80304     72.97618    181.89946     43.28704     31.37897    189.60023      0.26901     -0.07956     29.28704    -10.89283      0.57667     -6.15307     -9.00699
 -0.25    -38.03878     55.00047    -11.47972     72.06569    183.54148     41.36796     31.80449    190.82283      0.25641     -0.07738     27.36796    -10.93358      0.58723     -6.18400     -9.03582
 -0.24    -36.15847     55.41961    -11.15359     71.16448    185.15063     39.42888     32.21383    192.02376      0.24373     -0.07518     25.42888    -10.97351      0.59739     -6.21416     -9.06415
 -0.23    -34.25254     55.80662    -10.82111     70.29083    186.67267     37.44175     32.58037    193.16601      0.23089     -0.07294     23.44175    -11.01128      0.60648     -6.24231     -9.09118
 -0.22    -32.33694     56.18047    -10.48638     69.43005    188.15813     35.43598     32.92894    194.28320      0.21797     -0.07069     21.43598    -11.04814      0.61513     -6.26962     -9.11765
 -0.21    -30.40684     56.53458    -10.14827     68.58857    189.58873     33.40225     33.25053    195.36281      0.20496     -0.06841     19.40225    -11.08364      0.62311     -6.29566     -9.14330
 -0.20    -28.45865     56.86178     -9.80625     67.77665    190.94273     31.33258     33.53452    196.38920      0.19183     -0.06610     17.33258    -11.11724      0.63016     -6.31992     -9.16780
 -0.19    -26.50172     57.17537     -9.46244     66.98048    192.25757     29.24534     33.79931    197.38822      0.17864     -0.06378     15.24534    -11.14987      0.63673     -6.34328     -9.19172
 -0.18    -24.52797     57.46148     -9.11536     66.21779    193.49233     27.12375     34.02491    198.33095      0.16534     -0.06144     13.12375    -11.18051      0.64233     -6.36479     -9.21443
 -0.17    -22.54260     57.72655     -8.76630     65.48317    194.66443     24.97782     34.22001    199.22921      0.15195     -0.05909     10.97782    -11.20960      0.64717     -6.38485     -9.23620
 -0.16    -20.54950     57.97761     -8.41594     64.76728    195.79475     22.81567     34.39476    200.09782      0.13852     -0.05673      8.81567    -11.23765      0.65151     -6.40395     -9.25735
 -0.15    -18.53878     58.19297     -8.06314     64.10316    196.81712     20.61396     34.51705    200.88930      0.12496     -0.05435      6.61396    -11.26302      0.65454     -6.42055     -9.27687
 -0.14    -16.52173     58.39379     -7.70972     63.46170    197.79474     18.39730     34.61771    201.64863      0.11137     -0.05197      4.39730    -11.28728      0.65704     -6.43612     -9.29572
 -0.13    -14.49519     58.57281     -7.35537     62.85423    198.70522     16.15823     34.68594    202.35974      0.09771     -0.04958      2.15823    -11.30987      0.65873     -6.45015     -9.31357
 -0.12    -12.45749     58.72230     -7.00048     62.29586    199.52269     13.89230     34.70978    203.00376      0.08397     -0.04719     -0.10770    -11.33016      0.65932     -6.46204     -9.33001
 -0.11    -10.41460     58.85692     -6.64551     61.76293    200.29283     11.61380     34.71118    203.61359      0.07020     -0.04480     -2.38620    -11.34927      0.65936     -6.47285     -9.34573
 -0.10     -8.36209     58.96160     -6.29074     61.28267    200.96670      9.31186     34.66726    204.15378      0.05637     -0.04240     -4.68814    -11.36599      0.65827     -6.48146     -9.36000
 -0.09     -6.30358     59.04355     -5.93669     60.84438    201.56614      6.99519     34.58883    204.64003      0.04249     -0.04002     -7.00481    -11.38086      0.65632     -6.48839     -9.37313
 -0.08     -4.24106     59.11036     -5.58311     60.43407    202.11596      4.66870     34.48741    205.09032      0.02859     -0.03763     -9.33130    -11.39451      0.65380     -6.49419     -9.38551
 -0.07     -2.17058     59.13893     -5.23166     60.09736    202.53850      2.32286     34.32801    205.44828      0.01463     -0.03526    -11.67714    -11.40499      0.64985     -6.49712     -9.39593
 -0.06     -0.09771     59.15210     -4.88144     59.79133    202.90906     -0.02854     34.14538    205.76855      0.00066     -0.03290    -14.02854    -11.41419      0.64532     -6.49888     -9.40556
 -0.05      1.97863     59.14218     -4.53308     59.53131    203.20164     -2.38816     33.92793    206.03226     -0.01334     -0.03056    -16.38816    -11.42145      0.63992     -6.49891     -9.41399
 -0.04      4.05793     59.10130     -4.18794     59.33458    203.38864     -4.75407     33.66432    206.21945     -0.02735     -0.02823    -18.75407    -11.42609      0.63338     -6.49659     -9.42077
 -0.03      6.13828     59.04494     -3.84461     59.16982    203.52259     -7.12190     33.37778    206.36822     -0.04138     -0.02592    -21.12190    -11.42941      0.62627     -6.49310     -9.42673
 -0.02      8.21986     58.95757     -3.50524     59.06967    203.54990     -9.49113     33.04570    206.43984     -0.05541     -0.02363    -23.49113    -11.43009      0.61803     -6.48727     -9.43102
 -0.01     10.30106     58.84697     -3.16941     59.01851    203.49706    -11.85767     32.68027    206.45365     -0.06944     -0.02136    -25.85767    -11.42878      0.60896     -6.47969     -9.43405
  0.00     12.38199     58.72086     -2.83594     59.00000    203.39078    -14.22242     32.29260    206.42892     -0.08346     -0.01912    -28.22242    -11.42614      0.59934     -6.47095     -9.43624
  0.01     14.46023     58.55619     -2.50920     59.06322    203.16766    -16.57125     31.85857    206.32528     -0.09747     -0.01691    -30.57125    -11.42061      0.58857     -6.45972     -9.43656
  0.02     16.53657     58.37620     -2.18546     59.15885    202.89178    -18.91297     31.40385    206.18375     -0.11147     -0.01473    -32.91297    -11.41376      0.57729     -6.44736     -9.43603
  0.03     18.61008     58.17323     -1.86624     59.30309    202.53675    -21.24400     30.91812    205.98540     -0.12544     -0.01258    -35.24400    -11.40495      0.56523     -6.43332     -9.43423
  0.04     20.67809     57.93990     -1.55370     59.51092    202.07745    -23.55594     30.39287    205.71240     -0.13938     -0.01047    -37.55594    -11.39355      0.55220     -6.41708     -9.43075
  0.05     22.74292     57.69147     -1.24467     59.75008    201.56652    -25.85719     29.84842    205.40252     -0.15330     -0.00839    -39.85719    -11.38087      0.53869     -6.39977     -9.42642
  0.06     24.80056     57.41304     -0.94294     60.05098    200.95334    -28.13481     29.26663    205.01978     -0.16717     -0.00636    -42.13481    -11.36566      0.52425     -6.38033     -9.42042
  0.07     26.85157     57.11241     -0.64715     60.39640    200.26538    -30.39154     28.65861    204.58404     -0.18100     -0.00436    -44.39154    -11.34859      0.50916     -6.35937     -9.41318
  0.08     28.89815     56.79699     -0.35531     60.77150    199.52756    -32.63434     28.03312    204.11296     -0.19479     -0.00240    -46.63434    -11.33028      0.49364     -6.33739     -9.40512
  0.09     30.93166     56.44518     -0.07403     61.21725    198.66876    -34.83755     27.36708    203.55668     -0.20850     -0.00050    -48.83755    -11.30896      0.47711     -6.31296     -9.39504
  0.10     32.95917     56.07910      0.20276     61.68965    197.76321    -37.02322     26.68612    202.96771     -0.22217      0.00137    -51.02322    -11.28649      0.46022     -6.28762     -9.38417
  0.11     34.97767     55.69161      0.47282     62.20202    196.78754    -39.18259     25.98279    202.32971     -0.23577      0.00319    -53.18259    -11.26228      0.44276     -6.26088     -9.37211
  0.12     36.98267     55.27615      0.73346     62.76416    195.72190    -41.30391     25.25231    201.62933     -0.24929      0.00494    -55.30391    -11.23584      0.42464     -6.23239     -9.35851
  0.13     38.98054     54.84688      0.98927     63.35027    194.61221    -43.40557     24.50891    200.89854     -0.26276      0.00667    -57.40557    -11.20830      0.40619     -6.20305     -9.34415
  0.14     40.96346     54.39030      1.23522     63.98244    193.41625    -45.46667     23.74103    200.10849     -0.27612      0.00833    -59.46667    -11.17862      0.38713     -6.17206     -9.32830
  0.15     42.93412     53.91373      1.47351     64.64627    192.15782    -47.49673     22.95639    199.27603     -0.28941      0.00993    -61.49673    -11.14740      0.36766     -6.13990     -9.31135
  0.16     44.89662     53.42385      1.70667     65.33120    190.85774    -49.50609     22.16057    198.41527     -0.30263      0.01150    -63.50609    -11.11513      0.34791     -6.10695     -9.29368
  0.17     46.83702     52.90152      1.92660     66.06396    189.45742    -51.46259     21.33957    197.48734     -0.31571      0.01299    -65.46259    -11.08039      0.32754     -6.07215     -9.27422
  0.18     48.76794     52.36656      2.14108     66.81389    188.01878    -53.39723     20.50973    196.53411     -0.32873      0.01443    -67.39723    -11.04469      0.30695     -6.03666     -9.25408
  0.19     50.68468     51.81265      2.34740     67.58958    186.52265    -55.29914     19.66658    195.54292     -0.34165      0.01582    -69.29914    -11.00756      0.28603     -6.00013     -9.23291
  0.20     52.58119     51.23422      2.54255     68.39571    184.95348    -57.15618     18.80813    194.50432     -0.35443      0.01714    -71.15618    -10.96862      0.26472     -5.96231     -9.21040
  0.21     54.46732     50.64371      2.73206     69.21613    183.34865    -58.99060     17.94260    193.44278     -0.36715      0.01842    -72.99060    -10.92880      0.24325     -5.92388     -9.18724
  0.22     56.33209     50.02942      2.91017     70.06321    181.67423    -60.77933     17.06403    192.33694     -0.37972      0.01962    -74.77933    -10.88725      0.22144     -5.88424     -9.16280
  0.23     58.18002     49.39785      3.07959     70.92757    179.95030    -62.53320     16.17741    191.20027     -0.39217      0.02076    -76.53320    -10.84447      0.19944     -5.84378     -9.13742
  0.24     60.01671     48.75476      3.24321     71.80344    178.19335    -64.26384     15.28541    190.04304     -0.40455      0.02186    -78.26384    -10.80087      0.17731     -5.80277     -9.11142
  0.25     61.82402     48.08384      3.39215     72.70374    176.35888    -65.93508     14.38304    188.83875     -0.41674      0.02287    -79.93508    -10.75535      0.15492     -5.76052     -9.08394
  0.26     63.61908     47.40218      3.53516     73.61217    174.49504    -67.58243     13.47754    187.61715     -0.42884      0.02383    -81.58243    -10.70909      0.13245     -5.71780     -9.05588
  0.27     65.39577     46.70441      3.66926     74.53278    172.58717    -69.19395     12.56735    186.36956     -0.44081      0.02473    -83.19395    -10.66175      0.10986     -5.67440     -9.02697
  0.28     67.14703     45.98593      3.79142     75.46651    170.62368    -70.75766     11.65281    185.09023     -0.45262      0.02556    -84.75766    -10.61303      0.08716     -5.63017     -8.99695
  0.29     68.88535     45.25730      3.90759     76.40606    168.63312    -72.29748     10.73654    183.79572     -0.46433      0.02634    -86.29748    -10.56363      0.06443     -5.58554     -8.96639
  0.30     70.59735     44.50874      4.01174     77.35579    166.58991    -73.78958      9.81771    182.47226     -0.47587      0.02704    -87.78958    -10.51293      0.04163     -5.54015     -8.93477
  0.31     72.28898     43.74583      4.10687     78.31108    164.50931    -75.24604      8.89825    181.12911     -0.48728      0.02768    -89.24604    -10.46130      0.01881     -5.49425     -8.90238
  0.32     73.96704     42.97335      4.19599     79.27008    162.40380    -76.67874      7.97836    179.77285     -0.49859      0.02828    -90.67874    -10.40905     -0.00402     -5.44800     -8.86947
  0.33     75.61016     42.17791      4.27005     80.23512    160.23965    -78.05219      7.05954    178.38728     -0.50966      0.02878    -92.05219    -10.35535     -0.02682     -5.40099     -8.83533
  0.34     77.23894     41.37368      4.33812     81.20137    158.05434    -79.40151      6.14233    176.99191     -0.52064      0.02924    -93.40151    -10.30112     -0.04958     -5.35374     -8.80074
  0.35     78.84621     40.55627      4.39718     82.16946    155.83730    -80.71464      5.22752    175.58184     -0.53148      0.02964    -94.71464    -10.24610     -0.07228     -5.30610     -8.76545
  0.36     80.42414     39.72205      4.44431     83.13779    153.58087    -81.97982      4.31749    174.15489     -0.54211      0.02996    -95.97982    -10.19011     -0.09486     -5.25803     -8.72928
  0.37     81.98724     38.87964      4.48549     84.10573    151.30534    -83.22116      3.41019    172.72010     -0.55265      0.03024    -97.22116    -10.13364     -0.11738     -5.20977     -8.69269
  0.38     83.52036     38.02121      4.51482     85.07188    148.99277    -84.41516      2.50897    171.27081     -0.56298      0.03043    -98.41516    -10.07626     -0.13974     -5.16113     -8.65524
  0.39     85.03057     37.15134      4.53535     86.03526    146.65408    -85.57412      1.61323    169.81238     -0.57316      0.03057    -99.57412    -10.01822     -0.16197     -5.11225     -8.61718
  0.40     86.52550     36.27386      4.55000     86.99679    144.29797    -86.70972      0.72114    168.34785     -0.58324      0.03067   -100.70972     -9.95975     -0.18410     -5.06321     -8.57872
  0.41     87.98155     35.37826      4.55015     87.95152    141.90094    -87.78773     -0.16040    166.87088     -0.59306      0.03067   -101.78773     -9.90027     -0.20598     -5.01384     -8.53927
  0.42     89.42177     34.47580      4.54457     88.90271    139.48852    -88.84305     -1.03718    165.39003     -0.60276      0.03063   -102.84305     -9.84041     -0.22774     -4.96435     -8.49945
  0.43     90.83828     33.56303      4.53039     89.84860    137.05303    -89.86431     -1.90684    163.90335     -0.61231      0.03054   -103.86431     -9.77997     -0.24932     -4.91471     -8.45905
  0.44     92.22267     32.63726      4.50491     90.78590    134.58889    -90.84071     -2.76590    162.41121     -0.62164      0.03037   -104.84071     -9.71882     -0.27064     -4.86489     -8.41793
  0.45     93.59092     31.70516      4.47383     91.71860    132.11121    -91.79474     -3.61932    160.91707     -0.63087      0.03016   -105.79474     -9.65734     -0.29181     -4.81501     -8.37645
  0.46     94.92658     30.76080      4.43163     92.64131    129.60831    -92.70398     -4.46066    159.42054     -0.63987      0.02987   -106.70398     -9.59523     -0.31269     -4.76504     -8.33430
  0.47     96.23752     29.80780      4.38125     93.55560    127.08788    -93.58015     -5.29227    157.92381     -0.64871      0.02953   -107.58015     -9.53269     -0.33333     -4.71503     -8.29166
  0.48     97.53199     28.84902      4.32543     94.46429    124.55577    -94.43426     -6.11738    156.42695     -0.65743      0.02916   -108.43426     -9.46985     -0.35380     -4.66499     -8.24870
  0.49     98.78480     27.87671      4.25623     95.35749    121.99639    -95.23418     -6.92531    154.93222     -0.66588      0.02869   -109.23418     -9.40634     -0.37385     -4.61494     -8.20495
  0.50    100.02077     26.89935      4.18182     96.24397    119.42684    -96.01279     -7.72601    153.43932     -0.67421      0.02819   -110.01279     -9.34258     -0.39372     -4.56490     -8.16091
  0.51    101.23150     25.91439      4.09955     97.12036    116.84203    -96.75942     -8.51586    151.94915     -0.68237      0.02763   -110.75942     -9.27843     -0.41332     -4.51488     -8.11640
  0.52    102.40823     24.92000      4.00707     97.98228    114.23827    -97.46414     -9.29057    150.46458     -0.69030      0.02701   -111.46414     -9.21382     -0.43255     -4.46491     -8.07132
  0.53    103.56790     23.92107      3.90955     98.83675    111.62511    -98.14812    -10.05763    148.98315     -0.69812      0.02635   -112.14812     -9.14898     -0.45158     -4.41497     -8.02594
  0.54    104.69327     22.91339      3.80206     99.67584    108.99327    -98.79112    -10.80923    147.50867     -0.70570      0.02563   -112.79112     -9.08367     -0.47023     -4.36510     -7.97998
  0.55    105.79267     21.89964      3.68729    100.50271    106.34561    -99.40446    -11.54954    146.03942     -0.71311      0.02485   -113.40446     -9.01797     -0.48860     -4.31525     -7.93354
  0.56    106.87476     20.88184      3.56766    101.32144    103.68741    -99.99802    -12.28231    144.57365     -0.72041      0.02405   -113.99802     -8.95200     -0.50679     -4.26541     -7.88679
  0.57    107.91316     19.85474      3.43620    102.11871    101.00408   -100.54277    -12.99554    143.11915     -0.72741      0.02316   -114.54277     -8.88542     -0.52448     -4.21563     -7.83927
  0.58    108.93391     18.82422      3.30013    102.90700     98.31133   -101.06818    -13.70062    141.67030     -0.73429      0.02225   -115.06818     -8.81860     -0.54198     -4.16589     -7.79145
  0.59    109.92821     17.78860      3.15717    103.68180     95.60445   -101.56461    -14.39349    140.22991     -0.74099      0.02128   -115.56461     -8.75142     -0.55917     -4.11622     -7.74318
  0.60    110.88693     16.74679      3.00527    104.43786     92.87994   -102.02277    -15.06948    138.80312     -0.74745      0.02026   -116.02277     -8.68382     -0.57595     -4.06665     -7.69433
  0.61    111.82779     15.70204      2.84898    105.18438     90.14693   -102.46190    -15.73687    137.38372     -0.75380      0.01920   -116.46190     -8.61600     -0.59251     -4.01715     -7.64519
  0.62    112.73279     14.65174      2.68403    105.91147     87.39748   -102.86314    -16.38679    135.98027     -0.75990      0.01809   -116.86314     -8.54777     -0.60864     -3.96779     -7.59549
  0.63    113.61071     13.59772      2.51282    106.62348     84.63658   -103.23625    -17.02321    134.59060     -0.76581      0.01694   -117.23625     -8.47926     -0.62443     -3.91855     -7.54537
  0.64    114.47057     12.54124      2.33742    107.32545     81.86803   -103.59060    -17.65062    133.21010     -0.77161      0.01576   -117.59060     -8.41056     -0.64000     -3.86939     -7.49499
  0.65    115.28498     11.47933      2.15195    108.00155     79.08180   -103.89851    -18.25487    131.85562     -0.77710      0.01451   -117.89851     -8.34141     -0.65499     -3.82048     -7.44393
  0.66    116.08111     10.41556      1.96260    108.66701     76.28951   -104.18799    -18.84951    130.51302     -0.78247      0.01323   -118.18799     -8.27212     -0.66975     -3.77168     -7.39263
  0.67    116.84981      9.34900      1.76744    109.31653     73.48813   -104.44980    -19.42975    129.18823     -0.78765      0.01191   -118.44980     -8.20261     -0.68415     -3.72305     -7.34096
  0.68    117.58180      8.27931      1.56485    109.94434     70.68372   -104.67448    -19.98875    127.89327     -0.79258      0.01055   -118.67448     -8.13302     -0.69802     -3.67482     -7.28896
  0.69    118.29543      7.20821      1.35864    110.56123     67.87842   -104.88074    -20.53701    126.61387     -0.79739      0.00916   -118.88074     -8.06340     -0.71163     -3.62680     -7.23680
  0.70    118.97235      6.13459      1.14536    111.15609     65.07256   -105.05039    -21.06351    125.36696     -0.80195      0.00772   -119.05039     -7.99378     -0.72469     -3.57921     -7.18435
  0.71    119.62173      5.05950      0.92704    111.73423     62.26658   -105.19311    -21.57362    124.14569     -0.80633      0.00625   -119.19311     -7.92415     -0.73735     -3.53196     -7.13169
  0.72    120.25273      3.98348      0.70537    112.30121     59.46064   -105.31787    -22.07278    122.94156     -0.81059      0.00475   -119.31787     -7.85452     -0.74974     -3.48494     -7.07889
  0.73    120.83782      2.90577      0.47576    112.83999     56.65520   -105.39850    -22.54448    121.78244     -0.81453      0.00321   -119.39850     -7.78490     -0.76144     -3.43848     -7.02576
  0.74    121.40456      1.82768      0.24315    113.36737     53.85018   -105.46179    -23.00517    120.64222     -0.81835      0.00164   -119.46179     -7.71529     -0.77287     -3.39226     -6.97249
  0.75    121.94376      0.74901      0.00604    113.87765     51.04581   -105.49905    -23.44931    119.53036     -0.82198      0.00004   -119.49905     -7.64570     -0.78389     -3.34639     -6.91903
  0.76    122.44627     -0.32986     -0.23670    114.36492     48.24271   -105.50216    -23.87134    118.45811     -0.82537     -0.00160   -119.50216     -7.57614     -0.79437     -3.30099     -6.86531
  0.77    122.93043     -1.40870     -0.48216    114.84063     45.44035   -105.48833    -24.28230    117.40612     -0.82863     -0.00325   -119.48833     -7.50660     -0.80457     -3.25582     -6.81146
  0.78    123.37792     -2.48720     -0.73290    115.29314     42.63968   -105.44087    -24.67107    116.39557     -0.83165     -0.00494   -119.44087     -7.43710     -0.81421     -3.21114     -6.75737
  0.79    123.79792     -3.56502     -0.98732    115.72810     39.84056   -105.36854    -25.04317    115.41746     -0.83448     -0.00666   -119.36854     -7.36764     -0.82345     -3.16682     -6.70310
  0.80    124.19961     -4.64240     -1.24418    116.15136     37.04248   -105.27963    -25.40414    114.46098     -0.83719     -0.00839   -119.27963     -7.29821     -0.83240     -3.12274     -6.64870
  0.81    124.55554     -5.71799     -1.50673    116.54519     34.24746   -105.14985    -25.73727    113.56084     -0.83959     -0.01016   -119.14985     -7.22885     -0.84067     -3.07928     -6.59402
  0.82    124.89318     -6.79259     -1.77137    116.92717     31.45384   -105.00392    -26.05923    112.68411     -0.84186     -0.01194   -119.00392     -7.15953     -0.84866     -3.03606     -6.53922
  0.83    125.20341     -7.86573     -2.03914    117.29138     28.66234   -104.83377    -26.36446    111.84253     -0.84396     -0.01375   -118.83377     -7.09026     -0.85623     -2.99322     -6.48425
  0.84    125.47712     -8.93637     -2.31072    117.63175     25.87401   -104.63172    -26.64733    111.04954     -0.84580     -0.01558   -118.63172     -7.02106     -0.86325     -2.95089     -6.42906
  0.85    125.73259    -10.00564     -2.58412    117.96018     23.08734   -104.41380    -26.91902    110.28127     -0.84752     -0.01742   -118.41380     -6.95191     -0.87000     -2.90881     -6.37376
  0.86    125.95160    -11.07191     -2.86096    118.26467     20.30418   -104.16433    -27.16834    109.56330     -0.84900     -0.01928   -118.16433     -6.88285     -0.87618     -2.86724     -6.31825
  0.87    126.14331    -12.13553     -3.14011    118.55111     17.52391   -103.89144    -27.40086    108.88425     -0.85029     -0.02117   -117.89144     -6.81386     -0.88195     -2.82605     -6.26258
  0.88    126.31682    -13.19739     -3.42081    118.82553     14.74557   -103.60294    -27.62218    108.23116     -0.85146     -0.02306   -117.60294     -6.74491     -0.88744     -2.78513     -6.20681
  0.89    126.44491    -14.25422     -3.70489    119.06976     11.97245   -103.27577    -27.81549    107.64488     -0.85232     -0.02497   -117.27577     -6.67610     -0.89224     -2.74485     -6.15078
  0.90    126.55488    -15.30877     -3.99015    119.30188      9.20157   -102.93328    -27.99759    107.08603     -0.85307     -0.02690   -116.93328     -6.60734     -0.89676     -2.70483     -6.09466
  0.91    126.63764    -16.35993     -4.27717    119.51582      6.43408   -102.56779    -28.16288    106.56834     -0.85362     -0.02883   -116.56779     -6.53866     -0.90086     -2.66522     -6.03840
  0.92    126.68423    -17.40606     -4.56617    119.70547      3.67141   -102.17189    -28.30575    106.10683     -0.85394     -0.03078   -116.17189     -6.47011     -0.90441     -2.62612     -5.98195
  0.93    126.71274    -18.44954     -4.85607    119.88295      0.91127   -101.76085    -28.43740    105.67370     -0.85413     -0.03273   -115.76085     -6.40161     -0.90767     -2.58730     -5.92540
  0.94    126.70514    -19.48749     -5.14758    120.03607     -1.84356   -101.31964    -28.54663    105.29792     -0.85408     -0.03470   -115.31964     -6.33325     -0.91038     -2.54902     -5.86868
  0.95    126.67054    -20.52094     -5.44002    120.17089     -4.59333   -100.85610    -28.63903    104.96598     -0.85385     -0.03667   -114.85610     -6.26502     -0.91268     -2.51115     -5.81184
  0.96    126.61794    -21.55139     -5.73310    120.29352     -7.33980   -100.37766    -28.72020    104.66325     -0.85349     -0.03864   -114.37766     -6.19686     -0.91469     -2.47356     -5.75493
  0.97    126.52047    -22.57369     -6.02727    120.38562    -10.07747    -99.86225    -28.77336    104.43447     -0.85283     -0.04063   -113.86225     -6.12893     -0.91601     -2.43667     -5.69785
  0.98    126.40512    -23.59250     -6.32169    120.46551    -12.81166    -99.33211    -28.81533    104.23550     -0.85206     -0.04261   -113.33211     -6.06108     -0.91705     -2.40005     -5.64069
  0.99    126.26293    -24.60606     -6.61650    120.52708    -15.54063    -98.77987    -28.84053    104.08129     -0.85110     -0.04460   -112.77987     -5.99336     -0.91768     -2.36386     -5.58342
  1.00    126.08508    -25.61216     -6.91145    120.56421    -18.26264    -98.19824    -28.84339    103.98708     -0.84990     -0.04659   -112.19824     -5.92581     -0.91775     -2.32823     -5.52602
  1.01    125.88943    -26.61440     -7.20639    120.58912    -20.98117    -97.60191    -28.83510    103.92293     -0.84858     -0.04858   -111.60191     -5.85835     -0.91754     -2.29287     -5.46854
  1.02    125.65823    -27.60870     -7.50111    120.58959    -23.69276    -96.97624    -28.80450    103.91899     -0.84702     -0.05056   -110.97624     -5.79106     -0.91678     -2.25808     -5.41091
  1.03    125.40044    -28.59667     -7.79539    120.57172    -26.39914    -96.32856    -28.75720    103.96022     -0.84528     -0.05255   -110.32856     -5.72391     -0.91561     -2.22370     -5.35318
  1.04    125.12495    -29.58042     -8.08938    120.54163    -29.10204    -95.66620    -28.69877    104.03158     -0.84343     -0.05453   -109.66620     -5.65683     -0.91416     -2.18960     -5.29538
  1.05    124.80529    -30.55304     -8.38219    120.48100    -31.79625    -94.96712    -28.61251    104.17807     -0.84127     -0.05650   -108.96712     -5.58998     -0.91202     -2.15620     -5.23740
  1.06    124.46804    -31.52096     -8.67434    120.40814    -34.48698    -94.25331    -28.51513    104.35447     -0.83900     -0.05847   -108.25331     -5.52321     -0.90960     -2.12308     -5.17935
  1.07    124.10438    -32.48184     -8.96551    120.31696    -37.17247    -93.51743    -28.40106    104.57573     -0.83655     -0.06043   -107.51743     -5.45657     -0.90677     -2.09038     -5.12119
  1.08    123.70562    -33.43285     -9.25501    120.20136    -39.85096    -92.75199    -28.26477    104.85634     -0.83386     -0.06239   -106.75199     -5.39010     -0.90339     -2.05824     -5.06289
  1.09    123.28935    -34.37880     -9.54357    120.07355    -42.52592    -91.97176    -28.11735    105.16649     -0.83105     -0.06433   -105.97176     -5.32372     -0.89973     -2.02638     -5.00452
  1.10    122.83809    -35.31438     -9.83010    119.92133    -45.19379    -91.16185    -27.94771    105.53538     -0.82801     -0.06626   -105.16185     -5.25752     -0.89552     -1.99508     -4.94601
  1.11    122.36070    -36.24184    -10.11482    119.75083    -47.85538    -90.32986    -27.76146    105.94760     -0.82479     -0.06818   -104.32986     -5.19147     -0.89090     -1.96421     -4.88742
  1.12    121.86588    -37.16388    -10.39835    119.56814    -50.51277    -89.48315    -27.56414    106.38870     -0.82146     -0.07009   -103.48315     -5.12553     -0.88600     -1.93363     -4.82877
  1.13    121.32767    -38.07176    -10.67842    119.35505    -53.15867    -88.59974    -27.33925    106.90058     -0.81783     -0.07198   -102.59974     -5.05987     -0.88042     -1.90379     -4.77001
  1.14    120.77218    -38.97374    -10.95693    119.12982    -55.79978    -87.70160    -27.10336    107.44013     -0.81409     -0.07386   -101.70160     -4.99433     -0.87457     -1.87423     -4.71120
  1.15    120.19078    -39.86687    -11.23309    118.88641    -58.43369    -86.78138    -26.85097    108.02121     -0.81017     -0.07572   -100.78138     -4.92897     -0.86831     -1.84512     -4.65233
  1.16    119.57499    -40.74771    -11.50577    118.61882    -61.05762    -85.83162    -26.57664    108.65626     -0.80602     -0.07756    -99.83162     -4.86386     -0.86150     -1.81661     -4.59338
  1.17    118.94203    -41.62228    -11.77662    118.33916    -63.67645    -84.86706    -26.29137    109.31794     -0.80175     -0.07938    -98.86706     -4.79887     -0.85442     -1.78839     -4.53440
  1.18    118.27485    -42.48409    -12.04363    118.03542    -66.28488    -83.87285    -25.98423    110.03209     -0.79725     -0.08118    -97.87285     -4.73414     -0.84680     -1.76077     -4.47535
  1.19    117.58213    -43.33595    -12.30750    117.71369    -68.88517    -82.85628    -25.66076    110.78442     -0.79258     -0.08296    -96.85628     -4.66961     -0.83877     -1.73361     -4.41627
  1.20    116.87238    -44.18118    -12.56926    117.37997    -71.48005    -81.82482    -25.32639    111.56220     -0.78780     -0.08473    -95.82482     -4.60522     -0.83047     -1.70674     -4.35715
  1.21    116.12029    -45.00924    -12.82533    117.01641    -74.06080    -80.75589    -24.96489    112.40151     -0.78273     -0.08645    -94.75589     -4.54118     -0.82150     -1.68064     -4.29798
  1.22    115.35134    -45.83019    -13.07895    116.64097    -76.63573    -79.67186    -24.59258    113.26460     -0.77755     -0.08816    -93.67186     -4.47728     -0.81226     -1.65484     -4.23879
  1.23    114.55714    -46.64044    -13.32888    116.24775    -79.20177    -78.56524    -24.20406    114.16329     -0.77219     -0.08985    -92.56524     -4.41361     -0.80262     -1.62950     -4.17957
  1.24    113.72946    -47.43596    -13.57355    115.83092    -81.75554    -77.42825    -23.79402    115.10772     -0.76661     -0.09149    -91.42825     -4.35024     -0.79245     -1.60478     -4.12034
  1.25    112.88508    -48.22399    -13.81550    115.40235    -84.30305    -76.27602    -23.37326    116.07457     -0.76092     -0.09313    -90.27602     -4.28702     -0.78201     -1.58037     -4.06109
  1.26    112.00742    -48.99679    -14.05184    114.95033    -86.83777    -75.09318    -22.93108    117.08535     -0.75501     -0.09472    -89.09318     -4.22412     -0.77103     -1.55657     -4.00184
  1.27    111.10495    -49.75778    -14.28371    114.48088    -89.36249    -73.88720    -22.47293    118.12772     -0.74892     -0.09628    -87.88720     -4.16147     -0.75967     -1.53325     -3.94259
  1.28    110.18596    -50.51091    -14.51260    113.99980    -91.88055    -72.66578    -22.00413    119.19116     -0.74273     -0.09782    -86.66578     -4.09898     -0.74803     -1.51025     -3.88334
  1.29    109.22590    -51.24374    -14.73360    113.48990    -94.38121    -71.40541    -21.50886    120.30496     -0.73626     -0.09931    -85.40541     -4.03693     -0.73574     -1.48803     -3.82411
  1.30    108.24954    -51.96819    -14.95127    112.96857    -96.87461    -70.12932    -21.00307    121.43801     -0.72968     -0.10078    -84.12932     -3.97506     -0.72319     -1.46614     -3.76490
  1.31    107.24871    -52.68007    -15.16395    112.43011    -99.35711    -68.82962    -20.48150    122.59992     -0.72293     -0.10222    -82.82962     -3.91345     -0.71025     -1.44472     -3.70571
  1.32    106.21552    -53.37468    -15.36963    111.86903   -101.82445    -67.49812    -19.93904    123.79851     -0.71596     -0.10360    -81.49812     -3.85223     -0.69679     -1.42394     -3.64657
  1.33    105.16620    -54.06053    -15.57173    111.29672   -104.28404    -66.15063    -19.38616    125.01499     -0.70889     -0.10496    -80.15063     -3.79119     -0.68307     -1.40349     -3.58746
  1.34    104.08477    -54.72858    -15.76649    110.70206   -106.72777    -64.77097    -18.81256    126.26636     -0.70160     -0.10628    -78.77097     -3.73055     -0.66883     -1.38369     -3.52841
  1.35    102.97944    -55.38288    -15.95549    110.09084   -109.15907    -63.36689    -18.22352    127.54257     -0.69415     -0.10755    -77.36689     -3.67022     -0.65422     -1.36438     -3.46943
  1.36    101.85819    -56.02803    -16.14066    109.46860   -111.58209    -61.94653    -17.62421    128.83535     -0.68659     -0.10880    -75.94653     -3.61009     -0.63934     -1.34539     -3.41048
  1.37    100.69747    -56.64960    -16.31581    108.81915   -113.98270    -60.48538    -16.99962    130.16694     -0.67877     -0.10998    -74.48538     -3.55052     -0.62385     -1.32724     -3.35168
  1.38     99.52115    -57.26148    -16.48679    108.15904   -116.37042    -59.00994    -16.36599    131.51111     -0.67084     -0.11113    -73.00994     -3.49127     -0.60812     -1.30945     -3.29303
  1.39     98.32140    -57.85884    -16.65153    107.48291   -118.73881    -57.51306    -15.71880    132.87413     -0.66275     -0.11224    -71.51306     -3.43250     -0.59206     -1.29220     -3.23461
  1.40     97.09089    -58.43639    -16.80766    106.78600   -121.07827    -55.98897    -15.05460    134.25865     -0.65446     -0.11330    -69.98897     -3.37444     -0.57558     -1.27570     -3.17659
  1.41     95.84512    -59.00392    -16.95942    106.07885   -123.40297    -54.45132    -14.38205    135.65329     -0.64606     -0.11432    -68.45132     -3.31676     -0.55889     -1.25956     -3.11876
  1.42     94.56906    -59.55119    -17.10229    105.35152   -125.69757    -52.88662    -13.69307    137.06693     -0.63746     -0.11528    -66.88662     -3.25982     -0.54179     -1.24417     -3.06136
  1.43     93.27067    -60.08293    -17.23830    104.60955   -127.96871    -51.30176    -12.99223    138.49300     -0.62871     -0.11620    -65.30176     -3.20346     -0.52440     -1.22934     -3.00430
  1.44     91.95739    -60.60432    -17.36974    103.85781   -130.22421    -49.70345    -12.28349    139.92734     -0.61986     -0.11708    -63.70345     -3.14749     -0.50681     -1.21489     -2.94746
  1.45     90.60753    -61.09928    -17.48942    103.08256   -132.43907    -48.07176    -11.55577    141.37939     -0.61076     -0.11789    -62.07176     -3.09253     -0.48876     -1.20136     -2.89124
  1.46     89.24332    -61.58346    -17.60428    102.29829   -134.63705    -46.42679    -10.82079    142.83733     -0.60156     -0.11866    -60.42679     -3.03798     -0.47052     -1.18822     -2.83528
  1.47     87.85754    -62.05147    -17.71191    101.50045   -136.80976    -44.76188    -10.07491    144.30416     -0.59222     -0.11939    -58.76188     -2.98407     -0.45201     -1.17564     -2.77971
  1.48     86.44363    -62.49746    -17.80966    100.68541   -138.94734    -43.07066     -9.31525    145.78045     -0.58269     -0.12005    -57.07066     -2.93102     -0.43316     -1.16381     -2.72471
  1.49     85.01580    -62.93234    -17.90242     99.86197   -141.06707    -41.36629     -8.54886    147.26091     -0.57306     -0.12067    -55.36629     -2.87842     -0.41414     -1.15236     -2.66999
  1.50     83.56039    -63.34478    -17.98508     99.02218   -143.15044    -39.63572     -7.76938    148.74862     -0.56325     -0.12123    -53.63572     -2.82672     -0.39480     -1.14167     -2.61587
  1.51     82.08479    -63.74005    -18.06001     98.17084   -145.20738    -37.88400     -6.97993    150.24149     -0.55331     -0.12174    -51.88400     -2.77568     -0.37521     -1.13153     -2.56218
  1.52     80.59563    -64.12390    -18.12978     97.31175   -147.24683    -36.11808     -6.18378    151.73788     -0.54327     -0.12221    -50.11808     -2.72507     -0.35545     -1.12177     -2.50877
  1.53     79.07353    -64.47854    -18.18639     96.43461   -149.24212    -34.31542     -5.37121    153.24160     -0.53301     -0.12259    -48.31542     -2.67556     -0.33529     -1.11293     -2.45609
  1.54     77.53844    -64.82128    -18.23763     95.55068   -151.21912    -32.49793     -4.55240    154.74737     -0.52266     -0.12293    -46.49793     -2.62650     -0.31497     -1.10447     -2.40371
  1.55     75.98407    -65.14613    -18.28082     94.65669   -153.16844    -30.65840     -3.72431    156.25603     -0.51218     -0.12323    -44.65840     -2.57813     -0.29442     -1.09657     -2.35179
  1.56     74.40442    -65.44666    -18.31307     93.75028   -155.07943    -28.78927     -2.88454    157.76670     -0.50154     -0.12344    -42.78927     -2.53070     -0.27358     -1.08942     -2.30053
  1.57     72.81240    -65.73491    -18.33981     92.83801   -156.97069    -26.90545     -2.03920    159.27778     -0.49081     -0.12362    -40.90545     -2.48377     -0.25260     -1.08265     -2.24962
  1.58     71.19574    -65.99836    -18.35542     91.91449   -158.82191    -24.99202     -1.18301    160.78886     -0.47991     -0.12373    -38.99202     -2.43783     -0.23136     -1.07663     -2.19941
  1.59     69.56124    -66.24284    -18.36257     90.98357   -160.64152    -23.05661     -0.31947    162.29824     -0.46889     -0.12378    -37.05661     -2.39268     -0.20993     -1.07119     -2.14977
  1.60     67.91472    -66.47468    -18.36408     90.04764   -162.44020    -21.10641      0.54904    163.80660     -0.45779     -0.12379    -35.10641     -2.34805     -0.18838     -1.06612     -2.10052
  1.61     66.23923    -66.67433    -18.35129     89.10103   -164.18258    -19.12110      1.42799    165.30841     -0.44650     -0.12370    -33.12110     -2.30481     -0.16656     -1.06201     -2.05232
  1.62     64.55261    -66.86086    -18.33271     88.15097   -165.90120    -17.12213      2.31045    166.80629     -0.43513     -0.12357    -31.12213     -2.26216     -0.14467     -1.05829     -2.00457
  1.63     62.84908    -67.02774    -18.30547     87.19559   -167.58439    -15.10241      3.19830    168.29846     -0.42365     -0.12339    -29.10241     -2.22039     -0.12263     -1.05515     -1.95750
  1.64     61.12401    -67.16795    -18.26655     86.23491   -169.21811    -13.05553      4.09210    169.78061     -0.41202     -0.12313    -27.05553     -2.17985     -0.10045     -1.05278     -1.91141
  1.65     59.38825    -67.29473    -18.22177     85.27194   -170.82668    -10.99500      4.98864    171.25728     -0.40032     -0.12283    -24.99500     -2.13994     -0.07821     -1.05080     -1.86581
  1.66     57.63177    -67.39441    -18.16524     84.30543   -172.38362     -8.90761      5.88993    172.72164     -0.38848     -0.12245    -22.90761     -2.10130     -0.05584     -1.04959     -1.82124
  1.67     55.86025    -67.47343    -18.09983     83.33763   -173.90027     -6.80018      6.79391    174.17511     -0.37654     -0.12201    -20.80018     -2.06367     -0.03341     -1.04897     -1.77749
  1.68     54.07884    -67.53867    -18.02851     82.36905   -175.38994     -4.67957      7.69960    175.62122     -0.36453     -0.12152    -18.67957     -2.02670     -0.01093     -1.04874     -1.73429
  1.69     52.27354    -67.56895    -17.94234     81.40093   -176.80945     -2.52620      8.60802    177.04612     -0.35236     -0.12094    -16.52620     -1.99147      0.01161     -1.04948     -1.69254
  1.70     50.45927    -67.58504    -17.85023     80.43417   -178.19946     -0.36031      9.51670    178.46110     -0.34013     -0.12032    -14.36031     -1.95698      0.03416     -1.05061     -1.65141
  1.71     48.63134    -67.57983    -17.74919     79.46934   -179.54540      1.82464     10.42586    179.86135     -0.32781     -0.11964    -12.17536     -1.92358      0.05672     -1.05233     -1.61120
  1.72     46.78639    -67.54583    -17.63626     78.50961   -180.82863      4.03198     11.33315    181.23791     -0.31537     -0.11888     -9.96802     -1.89174      0.07923     -1.05483     -1.57235
  1.73     44.93306    -67.49735    -17.51740     77.55302   -182.07991      6.25035     12.23913    182.60198     -0.30288     -0.11808     -7.74965     -1.86069      0.10171     -1.05771     -1.53419
  1.74     43.06376    -67.41973    -17.38670     76.60414   -183.26570      8.48980     13.14143    183.93941     -0.29028     -0.11720     -5.51020     -1.83126      0.12410     -1.06137     -1.49746
  1.75     41.18314    -67.32000    -17.24717     75.66307   -184.40050     10.74447     14.03973    185.25489     -0.27760     -0.11626     -3.25553     -1.80310      0.14640     -1.06561     -1.46187
  1.76     39.29513    -67.20553    -17.10176     74.72728   -185.50123     13.00911     14.93531    186.55564     -0.26488     -0.11528     -0.99089     -1.77579      0.16862     -1.07024     -1.42703
  1.77     37.38973    -67.05380    -16.94176     73.80826   -186.51354     15.29753     15.82190    187.81619     -0.25203     -0.11420      1.29753     -1.75067      0.19062     -1.07583     -1.39418
  1.78     35.47810    -66.88704    -16.77600     72.89760   -187.48902     17.59461     16.70388    189.05911     -0.23915     -0.11308      3.59461     -1.72646      0.21251     -1.08180     -1.36218
  1.79     33.55689    -66.69769    -16.60158     71.99935   -188.40938     19.90498     17.57903    190.27574     -0.22620     -0.11191      5.90498     -1.70362      0.23422     -1.08834     -1.33142
  1.80     31.62435    -66.47797    -16.41581     71.12111   -189.25327     22.23117     18.44293    191.45411     -0.21317     -0.11065      8.23117     -1.68268      0.25566     -1.09564     -1.30244
  1.81     29.68632    -66.24300    -16.22440     70.25369   -190.05821     24.56476     19.30065    192.61257     -0.20011     -0.10936     10.56476     -1.66271      0.27695     -1.10331     -1.27436
  1.82     27.73823    -65.97743    -16.02183     69.40980   -190.78353     26.91149     20.14468    193.72927     -0.18697     -0.10800     12.91149     -1.64471      0.29789     -1.11173     -1.24814
  1.83     25.78344    -65.68874    -15.81106     68.58624   -191.44703     29.26653     20.97677    194.81229     -0.17380     -0.10658     15.26653     -1.62824      0.31854     -1.12070     -1.22338
  1.84     23.82432    -65.38465    -15.59484     67.77630   -192.06927     31.62692     21.80084    195.87277     -0.16059     -0.10512     17.62692     -1.61280      0.33899     -1.13003     -1.19961
  1.85     21.85580    -65.04184    -15.36531     67.00505   -192.58496     33.99819     22.60213    196.87310     -0.14732     -0.10357     19.99819     -1.60000      0.35887     -1.14027     -1.17838
  1.86     19.88426    -64.68348    -15.13062     66.25125   -193.05667     36.37248     23.39310    197.84775     -0.13403     -0.10199     22.37248     -1.58830      0.37850     -1.15085     -1.15822
  1.87     17.90829    -64.30182    -14.88820     65.52366   -193.46237     38.75119     24.16858    198.78384     -0.12071     -0.10036     24.75119     -1.57823      0.39774     -1.16197     -1.13967
  1.88     15.92765    -63.88898    -14.63580     64.83489   -193.77749     41.13320     24.92106    199.66542     -0.10736     -0.09866     27.13320     -1.57041      0.41642     -1.17377     -1.12332
  1.89     13.94519    -63.46056    -14.37852     64.16657   -194.04670     43.51611     25.66143    200.51894     -0.09400     -0.09692     29.51611     -1.56373      0.43479     -1.18591     -1.10811
  1.90     11.95957    -63.00093    -14.11167     63.54104   -194.22289     45.89996     26.37657    201.31504     -0.08062     -0.09512     31.89996     -1.55936      0.45253     -1.19872     -1.09519
  1.91      9.97290    -62.51792    -13.83797     62.95055   -194.32758     48.28288     27.07119    202.06600     -0.06722     -0.09328     34.28288     -1.55676      0.46977     -1.21202     -1.08406
  1.92      7.98537    -62.01929    -13.55969     62.38337   -194.38461     50.66537     27.75218    202.78693     -0.05383     -0.09140     36.66537     -1.55535      0.48667     -1.22566     -1.07411
  1.93      5.99799    -61.48174    -13.27059     61.87923   -194.31968     53.04151     28.39576    203.42873     -0.04043     -0.08945     39.04151     -1.55696      0.50264     -1.24007     -1.06723
  1.94      4.01135    -60.92865    -12.97738     61.40201   -194.20502     55.41314     29.02314    204.03743     -0.02704     -0.08748     41.41314     -1.55980      0.51821     -1.25479     -1.06161
  1.95      2.02605    -60.35232    -12.67808     60.96525   -194.01577     57.77772     29.62614    204.59639     -0.01366     -0.08546     43.77772     -1.56450      0.53317     -1.26996     -1.05789
  1.96      0.04396    -59.74511    -12.37114     60.58556   -193.72559     60.12862     30.19421    205.08630     -0.00030     -0.08339     46.12862     -1.57170      0.54727     -1.28569     -1.05676
  1.97     -1.93597    -59.12257    -12.06057     60.23515   -193.38471     62.47133     30.74420    205.54104      0.01305     -0.08130     48.47133     -1.58016      0.56092     -1.30169     -1.05694
  1.98     -3.91104    -58.46943    -11.74295     59.94462   -192.94192     64.79558     31.25690    205.92423      0.02636     -0.07916     50.79558     -1.59115      0.57364     -1.31822     -1.05976
  1.99     -5.88104    -57.79363    -11.42057     59.70079   -192.42241     67.10210     31.73995    206.25212      0.03964     -0.07698     53.10210     -1.60404      0.58563     -1.33512     -1.06459
  2.00     -7.84781    -57.10269    -11.09497     59.48806   -191.85172     69.39698     32.20328    206.54316      0.05290     -0.07479     55.39698     -1.61820      0.59712     -1.35226     -1.07076
  2.01     -9.80411    -56.37452    -10.76222     59.35535   -191.15338     71.65610     32.61475    206.73985      0.06609     -0.07254     57.65610     -1.63553      0.60733     -1.36994     -1.08031
  2.02    -11.75552    -55.63166    -10.42695     59.25521   -190.40434     73.89854     33.00466    206.89818      0.07924     -0.07028     59.89854     -1.65412      0.61701     -1.38783     -1.09121
  2.03    -13.69936    -54.86685    -10.08791     59.20397   -189.57934     76.11571     33.36218    206.99894      0.09234     -0.06800     62.11571     -1.67459      0.62588     -1.40601     -1.10413
  2.04    -15.63166    -54.07330     -9.74454     59.21840   -188.65440     78.29450     33.67515    207.02216      0.10537     -0.06568     64.29450     -1.69754      0.63365     -1.42453     -1.11976
  2.05    -17.55767    -53.26560     -9.39921     59.26563   -187.68008     80.45276     33.96556    207.00654      0.11835     -0.06336     66.45276     -1.72172      0.64086     -1.44322     -1.13672
  2.06    -19.47053    -52.42981     -9.05029     59.37839   -186.60789     82.56789     34.21036    206.91310      0.13124     -0.06101     68.56789     -1.74833      0.64693     -1.46220     -1.15634
  2.07    -21.37218    -51.57358     -8.69926     59.53965   -185.46436     84.64715     34.42039    206.76150      0.14406     -0.05864     70.64715     -1.77670      0.65214     -1.48137     -1.17793
  2.08    -23.26652    -50.70367     -8.34681     59.73328   -184.27319     86.70267     34.60726    206.57111      0.15683     -0.05626     72.70267     -1.80626      0.65678     -1.50065     -1.20082
  2.09    -25.14033    -49.80068     -7.99179     60.00593   -182.96708     88.69336     34.73578    206.28476      0.16946     -0.05387     74.69336     -1.83867      0.65997     -1.52019     -1.22691
  2.10    -27.00531    -48.88485     -7.63611     60.30918   -181.61672     90.65642     34.84097    205.96063      0.18203     -0.05147     76.65642     -1.87218      0.66258     -1.53979     -1.25424
  2.11    -28.85693    -47.94982     -7.27944     60.65831   -180.20009     92.57788     34.91116    205.57987      0.19452     -0.04907     78.57788     -1.90734      0.66432     -1.55951     -1.28342
  2.12    -30.68922    -46.99015     -6.92226     61.06603   -178.69916     94.44060     34.93504    205.12533      0.20687     -0.04666     80.44060     -1.94458      0.66491     -1.57934     -1.31499
  2.13    -32.51165    -46.01835     -6.56498     61.50232   -177.15704     96.27342     34.93594    204.63439      0.21915     -0.04425     82.27342     -1.98285      0.66494     -1.59921     -1.34772
  2.14    -34.31340    -45.02290     -6.20793     61.99418   -175.53492     98.04480     34.89120    204.07181      0.23130     -0.04185     84.04480     -2.02310      0.66382     -1.61914     -1.38275
  2.15    -36.09885    -44.01040     -5.85158     62.52524   -173.85600     99.76863     34.81295    203.45729      0.24333     -0.03944     85.76863     -2.06476      0.66188     -1.63909     -1.41941
  2.16    -37.87328    -42.98662     -5.49571     63.08238   -172.13935    101.46061     34.71238    202.80818      0.25529     -0.03704     87.46061     -2.10736      0.65939     -1.65905     -1.45716
  2.17    -39.61897    -41.93576     -5.14193     63.70030   -170.33379    103.07116     34.55746    202.07595      0.26706     -0.03466     89.07116     -2.15217      0.65554     -1.67901     -1.49749
  2.18    -41.35249    -40.87469     -4.78935     64.34058   -168.49505    104.64847     34.38153    201.31197      0.27874     -0.03228     90.64847     -2.19780      0.65118     -1.69895     -1.53881
  2.19    -43.06796    -39.79816     -4.43853     65.01448   -166.60630    106.17609     34.17405    200.50029      0.29031     -0.02992     92.17609     -2.24467      0.64603     -1.71886     -1.58158
  2.20    -44.75809    -38.70223     -4.09078     65.72920   -164.65409    107.63765     33.92591    199.62753      0.30170     -0.02757     93.63765     -2.29311      0.63987     -1.73872     -1.62623
  2.21    -46.43543    -37.59679     -3.74470     66.46338   -162.67092    109.06626     33.65780    198.72489      0.31301     -0.02524     95.06626     -2.34232      0.63322     -1.75856     -1.67180
  2.22    -48.08644    -36.47303     -3.40234     67.23439   -160.62791    110.42878     33.35056    197.76400      0.32414     -0.02293     96.42878     -2.39302      0.62559     -1.77834     -1.71913
  2.23    -49.71712    -35.33624     -3.06322     68.03010   -158.54288    111.74174     33.01523    196.76170      0.33513     -0.02065     97.74174     -2.44476      0.61727     -1.79806     -1.76772
  2.24    -51.33412    -34.19086     -2.72627     68.84222   -156.43000    113.02155     32.66119    195.73188      0.34603     -0.01838     99.02155     -2.49719      0.60849     -1.81774     -1.81715
  2.25    -52.91608    -33.02516     -2.39547     69.69061   -154.25197    114.21888     32.26252    194.63704      0.35669     -0.01615    100.21888     -2.55124      0.59859     -1.83732     -1.86853
  2.26    -54.48352    -31.85195     -2.06743     70.55156   -152.04990    115.38334     31.84692    193.51787      0.36726     -0.01394    101.38334     -2.60588      0.58828     -1.85684     -1.92064
  2.27    -56.02935    -30.66733     -1.74350     71.43144   -149.81146    116.49860     31.40589    192.36206      0.37768     -0.01175    102.49860     -2.66143      0.57734     -1.87629     -1.97384
  2.28    -57.54544    -29.46871     -1.42563     72.33282   -147.52886    117.54851     30.93293    191.16098      0.38790     -0.00961    103.54851     -2.71807      0.56560     -1.89563     -2.02840
  2.29    -59.04659    -28.26326     -1.11088     73.24414   -145.22502    118.56592     30.44447    189.93807      0.39801     -0.00749    104.56592     -2.77524      0.55348     -1.91491     -2.08361
  2.30    -60.51732    -27.04487     -0.80269     74.17349   -142.88108    119.51846     29.92609    188.67345      0.40793     -0.00541    105.51846     -2.83341      0.54062     -1.93408     -2.14005
  2.31    -61.96488    -25.81747     -0.49975     75.11395   -140.50926    120.42312     29.38662    187.37980      0.41769     -0.00337    106.42312     -2.89226      0.52723     -1.95315     -2.19736
  2.32    -63.39687    -24.58416     -0.20034     76.06175   -138.11904    121.29580     28.83313    186.06690      0.42734     -0.00135    107.29580     -2.95158      0.51349     -1.97216     -2.25523
  2.33    -64.78947    -23.33715      0.08977     77.02414   -135.68616    122.08997     28.24680    184.70952      0.43673      0.00061    108.08997     -3.01195      0.49894     -1.99102     -2.31444
  2.34    -66.16595    -22.08525      0.37592     77.99084   -133.23776    122.85325     27.64827    183.33596      0.44600      0.00253    108.85325     -3.07271      0.48409     -2.00982     -2.37413
  2.35    -67.51841    -20.82588      0.65617     78.96411   -130.76580    123.57027     27.03137    181.93795      0.45512      0.00442    109.57027     -3.13405      0.46878     -2.02853     -2.43456
  2.36    -68.83822    -19.55768      0.92815     79.94328   -128.26531    124.22672     26.39180    180.51047      0.46402      0.00626    110.22672     -3.19610      0.45291     -2.04713     -2.49588
  2.37    -70.14169    -18.28522      1.19593     80.92483   -125.75138    124.85314     25.74139    179.06912      0.47280      0.00806    110.85314     -3.25848      0.43677     -2.06566     -2.55763
  2.38    -71.41212    -17.00486      1.45508     81.90974   -123.21285    125.41985     25.07041    177.60209      0.48137      0.00981    111.41985     -3.32147      0.42012     -2.08408     -2.62017
  2.39    -72.65744    -15.71936      1.70752     82.89537   -120.65895    125.94251     24.38566    176.11871      0.48976      0.01151    111.94251     -3.38485      0.40313     -2.10240     -2.68321
  2.40    -73.88612    -14.43032      1.95551     83.88154   -118.09460    126.43583     23.69166    174.62431      0.49804      0.01318    112.43583     -3.44848      0.38591     -2.12066     -2.74659
  2.41    -75.07260    -13.13387      2.19195     84.86618   -115.50718    126.85752     22.97673    173.10609      0.50604      0.01478    112.85752     -3.51269      0.36817     -2.13877     -2.81073
  2.42    -76.24213    -11.83482      2.42367     85.84926   -112.91134    127.25127     22.25417    171.57958      0.51392      0.01634    113.25127     -3.57711      0.35024     -2.15682     -2.87515
  2.43    -77.38609    -10.53204      2.64826     86.82988   -110.30316    127.60308     21.52026    170.04083      0.52163      0.01785    113.60308     -3.64183      0.33203     -2.17479     -2.93997
  2.44    -78.49585     -9.22504      2.86313     87.80543   -107.68003    127.90039     20.77264    168.48822      0.52912      0.01930    113.90039     -3.70692      0.31347     -2.19266     -3.00529
  2.45    -79.58837     -7.91625      3.07309     88.77793   -105.05005    128.17074     20.01860    166.92944      0.53648      0.02071    114.17074     -3.77218      0.29476     -2.21047     -3.07084
  2.46    -80.64644     -6.60412      3.27312     89.74361   -102.40678    128.38792     19.25231    165.35941      0.54361      0.02206    114.38792     -3.83778      0.27575     -2.22820     -3.13682
  2.47    -81.67845     -5.29023      3.46556     90.70287    -99.75511    128.56617     18.47801    163.78308      0.55057      0.02336    114.56617     -3.90358      0.25653     -2.24587     -3.20309
  2.48    -82.69315     -3.97508      3.65294     91.65793    -97.09764    128.71847     17.69832    162.20243      0.55741      0.02462    114.71847     -3.96952      0.23718     -2.26349     -3.26955
  2.49    -83.66424     -2.65802      3.82747     92.60046    -94.43014    128.80741     16.90762    160.61571      0.56395      0.02580    114.80741     -4.03572      0.21756     -2.28101     -3.33636
  2.50    -84.61789     -1.34051      3.99679     93.53736    -91.75926    128.87165     16.11315    159.02776      0.57038      0.02694    114.87165     -4.10199      0.19785     -2.29849     -3.40330
